* Measurement data measured by REW V5.20.13
* Source: Microphone (USB Sound Device        ), MICROPHONE (Master Volume), R, volume: 0,250
* Format: 256k Log Swept Sine, 1 sweep at -12,0 dBFS with no timing reference
* Dated: 22:27:09 09-04-2024
* REW Settings:
*  C-weighting compensation: Off
*  Target level: 75.0 dB
* Note: ; 
* Measurement: Aurum L
* Smoothing: None
* Frequency Step: 1/48 octave
* Start Frequency: 1.000 Hz
*
* Freq(Hz) SPL(dB) Phase(degrees)
1.000000 82.717 124.6780
1.015000 82.427 123.9353
1.030000 82.106 123.2176
1.044000 81.778 122.5723
1.060000 81.365 121.8663
1.075000 80.941 121.2372
1.090000 80.477 120.6420
1.106000 79.928 120.0166
1.120000 79.361 119.3143
1.138000 78.515 118.1866
1.150000 77.885 117.3175
1.172000 76.613 115.5365
1.180000 76.119 114.8434
1.206000 74.417 112.4951
1.220000 73.455 111.2090
1.241000 71.974 109.3167
1.250000 71.332 108.5365
1.265000 70.260 107.3007
1.280000 69.195 106.1711
1.315000 66.791 104.1137
1.320000 66.462 103.9018
1.340000 65.202 103.3031
1.360000 64.045 103.1547
1.380000 63.015 103.5264
1.400000 62.136 104.4877
1.430000 61.157 107.1880
1.450000 60.765 109.9288
1.475000 60.609 114.5975
1.500000 60.819 121.1803
1.525000 61.350 129.5334
1.550000 62.158 139.3542
1.575000 63.198 150.3404
1.600000 64.426 162.1892
1.625000 65.796 174.5985
1.650000 67.265 -172.7344
1.675000 68.787 -160.1118
1.700000 70.318 -147.8362
1.725000 71.813 -136.2101
1.750000 73.227 -125.5359
1.775000 74.516 -116.1161
1.800000 75.635 -108.2532
1.825000 76.539 -102.2495
1.850000 77.241 -98.1703
1.875000 77.855 -95.5163
1.900000 78.395 -94.1111
1.925000 78.867 -93.7975
1.950000 79.279 -94.4187
1.975000 79.639 -95.8177
2.000000 79.952 -97.8375
2.030000 80.279 -100.8597
2.060000 80.562 -104.2787
2.090000 80.816 -107.8232
2.120000 81.052 -111.2220
2.140000 81.205 -113.2731
2.180000 81.520 -116.4978
2.200000 81.689 -117.5154
2.240000 82.000 -119.2011
2.270000 82.196 -120.4644
2.300000 82.363 -121.7226
2.330000 82.505 -122.9715
2.360000 82.623 -124.2071
2.400000 82.751 -125.8270
2.430000 82.828 -127.0160
2.470000 82.911 -128.5591
2.500000 82.963 -129.6796
2.540000 83.023 -131.1168
2.580000 83.076 -132.4861
2.620000 83.105 -133.8264
2.650000 83.110 -134.8127
2.690000 83.095 -136.0927
2.720000 83.070 -137.0196
2.760000 83.022 -138.2013
2.800000 82.958 -139.3097
2.850000 82.863 -140.5733
2.900000 82.755 -141.6787
2.950000 82.639 -142.6086
3.000000 82.494 -143.4046
3.040000 82.357 -143.9490
3.070000 82.247 -144.3007
3.110000 82.091 -144.6905
3.150000 81.933 -144.9859
3.200000 81.736 -145.2158
3.250000 81.550 -145.2831
3.300000 81.385 -145.1786
3.350000 81.225 -144.8336
3.400000 81.062 -144.2456
3.450000 80.902 -143.4770
3.500000 80.753 -142.5900
3.550000 80.621 -141.6468
3.600000 80.516 -140.7095
3.650000 80.443 -139.8406
3.700000 80.409 -139.0172
3.750000 80.410 -138.0977
3.820000 80.457 -136.7457
3.870000 80.516 -135.8132
3.950000 80.633 -134.5408
4.000000 80.712 -133.9739
4.060000 80.808 -133.5984
4.120000 80.930 -133.4707
4.180000 81.069 -133.5514
4.250000 81.239 -133.8768
4.310000 81.376 -134.3261
4.370000 81.492 -134.9072
4.440000 81.593 -135.7625
4.500000 81.667 -136.7198
4.550000 81.720 -137.6433
4.620000 81.775 -139.0662
4.680000 81.804 -140.3490
4.750000 81.811 -141.8447
4.820000 81.786 -143.3561
4.870000 81.750 -144.5073
4.940000 81.678 -146.1694
5.000000 81.598 -147.5944
5.080000 81.471 -149.4169
5.150000 81.343 -150.8761
5.220000 81.189 -152.2839
5.300000 80.984 -153.8295
5.380000 80.766 -155.2516
5.450000 80.575 -156.3488
5.520000 80.392 -157.2697
5.600000 80.172 -158.1119
5.700000 79.893 -158.9118
5.800000 79.642 -159.5066
5.900000 79.452 -159.9473
6.000000 79.309 -160.0959
6.080000 79.225 -160.1088
6.150000 79.175 -160.1451
6.220000 79.151 -160.2886
6.300000 79.160 -160.5666
6.400000 79.225 -160.9794
6.500000 79.324 -161.5515
6.600000 79.427 -162.3762
6.700000 79.545 -163.5075
6.800000 79.680 -164.8762
6.900000 79.809 -166.3887
7.000000 79.913 -167.9760
7.100000 80.002 -169.7332
7.200000 80.077 -171.5740
7.300000 80.132 -173.3640
7.400000 80.164 -175.0498
7.500000 80.173 -176.7148
7.620000 80.165 -178.5714
7.750000 80.146 179.7363
7.880000 80.105 178.3395
8.000000 80.068 177.2908
8.120000 80.051 176.4876
8.250000 80.045 175.9300
8.380000 80.059 175.5440
8.500000 80.103 175.2429
8.620000 80.173 175.0598
8.750000 80.267 174.8633
8.850000 80.345 174.6335
9.000000 80.483 174.2244
9.120000 80.591 173.8371
9.250000 80.694 173.3322
9.380000 80.788 172.7451
9.500000 80.860 172.1996
9.620000 80.911 171.6755
9.750000 80.948 171.1095
9.880000 80.969 170.6119
10.000000 80.975 170.2423
10.150000 80.966 169.8727
10.300000 80.951 169.6078
10.440000 80.933 169.4731
10.600000 80.910 169.3851
10.750000 80.892 169.3284
10.900000 80.875 169.2992
11.060000 80.854 169.2252
11.200000 80.834 169.1293
11.380000 80.800 168.9621
11.500000 80.770 168.8154
11.720000 80.700 168.5054
11.800000 80.670 168.3884
12.060000 80.556 167.9836
12.200000 80.490 167.7608
12.410000 80.386 167.4074
12.500000 80.342 167.2346
12.650000 80.268 166.9259
12.800000 80.193 166.5715
13.150000 80.014 165.5159
13.200000 79.987 165.3440
13.400000 79.876 164.5938
13.600000 79.760 163.8007
13.800000 79.639 162.9820
14.000000 79.523 162.1715
14.300000 79.366 160.9747
14.500000 79.284 160.1735
14.750000 79.205 159.1114
15.000000 79.152 157.9594
15.250000 79.114 156.6996
15.500000 79.082 155.4017
15.750000 79.050 154.1185
16.000000 79.018 152.9492
16.250000 78.994 151.9393
16.500000 78.982 151.0904
16.750000 78.988 150.3799
17.000000 79.009 149.7389
17.250000 79.038 149.1441
17.500000 79.066 148.5697
17.750000 79.083 148.0457
18.000000 79.088 147.5964
18.250000 79.081 147.2499
18.500000 79.065 147.0100
18.750000 79.044 146.8491
19.000000 79.019 146.7412
19.250000 78.989 146.6374
19.500000 78.949 146.5270
19.750000 78.898 146.4017
20.000000 78.835 146.2715
20.299999 78.745 146.1127
20.600000 78.647 145.9387
20.900000 78.542 145.7205
21.200001 78.434 145.4200
21.400000 78.358 145.1660
21.799999 78.199 144.5514
22.000000 78.117 144.2051
22.400000 77.957 143.4632
22.700001 77.850 142.8565
23.000000 77.756 142.1794
23.299999 77.675 141.4183
23.600000 77.600 140.5928
24.000000 77.508 139.4632
24.299999 77.445 138.6623
24.700001 77.375 137.7091
25.000000 77.335 137.0807
25.400000 77.298 136.3367
25.799999 77.268 135.6983
26.200001 77.239 135.1954
26.500000 77.216 134.9161
26.900000 77.187 134.6494
27.200001 77.165 134.4921
27.600000 77.127 134.2980
28.000000 77.072 134.1095
28.500000 76.978 133.8954
29.000000 76.861 133.6918
29.500000 76.727 133.4552
30.000000 76.582 133.1655
30.400000 76.465 132.8878
30.700001 76.380 132.6373
31.100000 76.274 132.2233
31.500000 76.172 131.7228
32.000000 76.051 131.0404
32.500000 75.947 130.3636
33.000000 75.868 129.6765
33.500000 75.803 128.9499
34.000000 75.738 128.2631
34.500000 75.672 127.7354
35.000000 75.616 127.3670
35.500000 75.570 127.0576
36.000000 75.517 126.7609
36.500000 75.450 126.5107
37.000000 75.374 126.3151
37.500000 75.290 126.1299
38.200001 75.159 125.8519
38.700001 75.063 125.6384
39.500000 74.915 125.1447
40.000000 74.817 124.7441
40.599998 74.696 124.3042
41.200001 74.595 123.9358
41.799999 74.520 123.5179
42.500000 74.439 122.9274
43.099998 74.362 122.4266
43.700001 74.275 122.0037
44.400002 74.170 121.6752
45.000000 74.091 121.4881
45.500000 74.031 121.2892
46.200001 73.934 120.9479
46.799999 73.841 120.7319
47.500000 73.753 120.4896
48.200001 73.661 120.0751
48.700001 73.575 119.8094
49.400002 73.457 119.7344
50.000000 73.403 119.7756
50.799999 73.372 119.4662
51.500000 73.313 118.8658
52.200001 73.205 118.2596
53.000000 73.044 117.7585
53.799999 72.875 117.5658
54.500000 72.760 117.6078
55.200001 72.692 117.5956
56.000000 72.637 117.3282
57.000000 72.554 116.7934
58.000000 72.439 116.3713
59.000000 72.318 116.2393
60.000000 72.200 116.2525
60.799999 72.110 116.3446
61.500000 72.038 116.3785
62.200001 71.958 116.3843
63.000000 71.881 116.5057
64.000000 71.855 116.5394
65.000000 71.853 116.1077
66.000000 71.828 115.5773
67.000000 71.805 115.0646
68.000000 71.756 114.4878
69.000000 71.680 114.0304
70.000000 71.589 113.5586
71.000000 71.476 113.1456
72.000000 71.367 112.8055
73.000000 71.278 112.4679
74.000000 71.193 112.0133
75.000000 71.098 111.6994
76.199997 71.012 111.3377
77.500000 70.895 111.0349
78.800003 70.821 110.7937
80.000000 70.743 110.2583
81.199997 70.638 109.9740
82.500000 70.588 109.5895
83.800003 70.467 109.2581
85.000000 70.430 109.2001
86.199997 70.346 108.7087
87.500000 70.246 108.5759
88.500000 70.186 108.4051
90.000000 70.107 108.0738
91.199997 70.036 107.7578
92.500000 69.941 107.3652
93.800003 69.855 107.2135
95.000000 69.788 106.9224
96.199997 69.728 106.7458
97.500000 69.672 106.4636
98.800003 69.619 106.3295
100.000000 69.584 105.9757
101.500000 69.459 105.5915
103.000000 69.379 105.4662
104.400002 69.297 105.1009
106.000000 69.232 104.9507
107.500000 69.179 104.5743
109.000000 69.123 104.2768
110.599998 69.045 103.9686
112.000000 68.981 103.6490
113.800003 68.929 103.3953
115.000000 68.876 103.1363
117.199997 68.808 102.6214
118.000000 68.758 102.5279
120.599998 68.655 102.0734
122.000000 68.602 101.7504
124.099998 68.550 101.4950
125.000000 68.525 101.2777
126.500000 68.477 101.0594
128.000000 68.407 100.6943
131.500000 68.301 100.2378
132.000000 68.287 100.0625
134.000000 68.205 99.9430
136.000000 68.170 99.3532
138.000000 68.094 99.0646
140.000000 68.100 98.7227
143.000000 68.026 98.3177
145.000000 67.956 98.0997
147.500000 67.883 97.4603
150.000000 67.810 96.9962
152.500000 67.800 96.7649
155.000000 67.772 96.4802
157.500000 67.729 96.1655
160.000000 67.671 95.6871
162.500000 67.690 95.0999
165.000000 67.624 94.9560
167.500000 67.624 94.3136
170.000000 67.609 93.7976
172.500000 67.568 93.4149
175.000000 67.543 92.5386
177.500000 67.505 92.2561
180.000000 67.481 91.6988
182.500000 67.451 91.2357
185.000000 67.414 90.5079
187.500000 67.381 89.6208
190.000000 67.359 89.2900
192.500000 67.305 88.4844
195.000000 67.293 88.5417
197.500000 67.272 88.0543
200.000000 67.333 87.4249
203.000000 67.237 87.0100
206.000000 67.184 86.5137
209.000000 67.185 85.8091
212.000000 67.137 85.3708
214.000000 67.143 85.0555
218.000000 67.119 84.3003
220.000000 67.093 83.9539
224.000000 67.031 83.1700
227.000000 67.026 82.8015
230.000000 67.039 82.0719
233.000000 67.013 81.6579
236.000000 67.017 81.0284
240.000000 67.002 80.4572
243.000000 66.977 79.8283
247.000000 66.986 79.3442
250.000000 66.904 78.6891
254.000000 66.895 77.8803
258.000000 66.938 77.2628
262.000000 66.885 76.3804
265.000000 66.885 76.0238
269.000000 66.907 75.5199
272.000000 66.893 74.7558
276.000000 66.898 74.2635
280.000000 66.871 73.7267
285.000000 66.893 72.8171
290.000000 66.861 72.1141
295.000000 66.872 71.3562
300.000000 66.864 70.7104
304.000000 66.824 69.6689
307.000000 66.846 69.3312
311.000000 66.837 68.7671
315.000000 66.881 68.1602
320.000000 66.861 67.4634
325.000000 66.864 66.5727
330.000000 66.855 66.1306
335.000000 66.871 65.2364
340.000000 66.879 64.5723
345.000000 66.845 64.0286
350.000000 66.887 63.0092
355.000000 66.888 62.4660
360.000000 66.893 61.6974
365.000000 66.911 61.1137
370.000000 66.877 60.4313
375.000000 66.928 59.8633
382.000000 66.928 59.1002
387.000000 66.938 58.1558
395.000000 66.959 57.4636
400.000000 66.979 56.4076
406.000000 67.011 56.3071
412.000000 67.050 55.3827
418.000000 67.074 54.5846
425.000000 67.058 53.8286
431.000000 67.069 53.1229
437.000000 67.137 52.5086
444.000000 67.140 51.7466
450.000000 67.179 51.1805
455.000000 67.175 50.6046
462.000000 67.224 50.0196
468.000000 67.243 49.2578
475.000000 67.277 48.4627
482.000000 67.355 47.9200
487.000000 67.347 47.2709
494.000000 67.368 46.5020
500.000000 67.436 45.9087
508.000000 67.470 45.5873
515.000000 67.534 44.7292
522.000000 67.607 43.8959
530.000000 67.587 43.1276
538.000000 67.670 42.4628
545.000000 67.704 41.9964
552.000000 67.712 41.1020
560.000000 67.830 40.5244
570.000000 67.891 39.6207
580.000000 67.964 38.6512
590.000000 68.046 37.8990
600.000000 68.077 36.8645
608.000000 68.169 36.2609
615.000000 68.201 35.8648
622.000000 68.275 35.1839
630.000000 68.308 34.4739
640.000000 68.376 33.5924
650.000000 68.432 32.8179
660.000000 68.531 31.8808
670.000000 68.600 31.0260
680.000000 68.683 30.2732
690.000000 68.730 29.5145
700.000000 68.781 28.4441
710.000000 68.859 27.8923
720.000000 68.899 27.1576
730.000000 68.914 26.1908
740.000000 69.011 25.8067
750.000000 69.070 25.0405
762.000000 69.171 24.5882
775.000000 69.269 23.5979
788.000000 69.338 22.7005
800.000000 69.467 21.8037
812.000000 69.514 21.2541
825.000000 69.649 20.6481
838.000000 69.727 19.4964
850.000000 69.841 18.7936
862.000000 69.908 17.8185
875.000000 70.056 16.9991
885.000000 70.097 16.3044
900.000000 70.222 15.3525
912.000000 70.332 14.6785
925.000000 70.452 13.8419
938.000000 70.507 12.8243
950.000000 70.631 11.9838
962.000000 70.723 11.0676
975.000000 70.835 10.4617
988.000000 70.902 9.3207
1000.000000 71.017 9.2345
1015.000000 71.087 7.2136
1030.000000 71.241 6.3157
1044.000000 71.316 5.2680
1060.000000 71.399 3.8630
1075.000000 71.500 2.6767
1090.000000 71.571 1.6442
1106.000000 71.642 0.3563
1120.000000 71.683 -0.8074
1138.000000 71.763 -2.1715
1150.000000 71.775 -3.0443
1172.000000 71.881 -4.7126
1180.000000 71.882 -5.3956
1206.000000 71.908 -7.2996
1220.000000 71.936 -8.1586
1241.000000 71.938 -9.7095
1250.000000 71.974 -10.1170
1265.000000 71.948 -11.0542
1280.000000 71.906 -11.9383
1315.000000 71.839 -13.6726
1320.000000 71.855 -13.9856
1340.000000 71.819 -15.0188
1360.000000 71.734 -15.5953
1380.000000 71.724 -16.4503
1400.000000 71.645 -17.1535
1430.000000 71.561 -17.8663
1450.000000 71.549 -18.3923
1475.000000 71.466 -18.4851
1500.000000 71.391 -18.7176
1525.000000 71.359 -18.8641
1550.000000 71.315 -18.8230
1575.000000 71.261 -18.6982
1600.000000 71.278 -18.7927
1625.000000 71.235 -18.1882
1650.000000 71.212 -18.1179
1675.000000 71.241 -17.5002
1700.000000 71.250 -17.0573
1725.000000 71.303 -16.4293
1750.000000 71.316 -16.0408
1775.000000 71.383 -15.4478
1800.000000 71.395 -14.9048
1825.000000 71.486 -14.1656
1850.000000 71.573 -13.7367
1875.000000 71.653 -13.0812
1900.000000 71.770 -12.5784
1925.000000 71.858 -11.8466
1950.000000 72.006 -11.3071
1975.000000 72.146 -10.6050
2000.000000 72.309 -9.6877
2030.000000 72.418 -9.8082
2060.000000 72.622 -9.1494
2090.000000 72.810 -8.7819
2120.000000 72.960 -8.0859
2140.000000 73.127 -8.0458
2180.000000 73.386 -7.2643
2200.000000 73.517 -7.2457
2240.000000 73.849 -6.7978
2270.000000 74.025 -6.8033
2300.000000 74.253 -6.7209
2330.000000 74.546 -6.5314
2360.000000 74.778 -6.8749
2400.000000 75.112 -7.5592
2430.000000 75.278 -8.1844
2470.000000 75.524 -9.0977
2500.000000 75.684 -9.5926
2540.000000 75.881 -10.6225
2580.000000 76.039 -11.3567
2620.000000 76.220 -12.1770
2650.000000 76.355 -12.6948
2690.000000 76.485 -13.7748
2720.000000 76.622 -14.5107
2760.000000 76.731 -15.6331
2800.000000 76.836 -16.7083
2850.000000 76.918 -17.9745
2900.000000 76.983 -19.1740
2950.000000 77.030 -20.2673
3000.000000 76.995 -21.5595
3040.000000 77.070 -22.2258
3070.000000 77.055 -22.7317
3110.000000 77.087 -23.7145
3150.000000 77.068 -24.6128
3200.000000 77.036 -25.9488
3250.000000 76.977 -27.3594
3300.000000 76.860 -28.5267
3350.000000 76.711 -29.6049
3400.000000 76.502 -30.4422
3450.000000 76.258 -30.9449
3500.000000 76.047 -31.4496
3550.000000 75.796 -31.4495
3600.000000 75.537 -31.1504
3650.000000 75.294 -30.8339
3700.000000 75.121 -30.0595
3750.000000 74.928 -29.2562
3820.000000 74.710 -27.9285
3870.000000 74.551 -27.0763
3950.000000 74.377 -25.2391
4000.000000 74.344 -24.8516
4060.000000 74.130 -22.7145
4120.000000 74.096 -21.4664
4180.000000 74.044 -20.1233
4250.000000 74.016 -18.2756
4310.000000 73.998 -17.1580
4370.000000 74.010 -16.2592
4440.000000 74.001 -14.9236
4500.000000 73.958 -14.3004
4550.000000 73.970 -13.3528
4620.000000 74.053 -12.0767
4680.000000 74.110 -11.7786
4750.000000 74.089 -11.3373
4820.000000 74.024 -11.1184
4870.000000 73.991 -10.8676
4940.000000 73.885 -10.7523
5000.000000 73.733 -10.3469
5080.000000 73.592 -10.4184
5150.000000 73.367 -10.3534
5220.000000 73.167 -10.0983
5300.000000 72.788 -9.8585
5380.000000 72.368 -8.3365
5450.000000 71.992 -7.0146
5520.000000 71.562 -5.0966
5600.000000 71.114 -2.0858
5700.000000 70.683 1.7223
5800.000000 70.314 6.4006
5900.000000 70.101 11.0302
6000.000000 69.930 14.7271
6080.000000 69.794 19.8203
6150.000000 69.829 23.4610
6220.000000 69.786 26.7690
6300.000000 69.914 30.1935
6400.000000 69.938 33.9636
6500.000000 69.853 37.2438
6600.000000 69.756 41.2077
6700.000000 69.733 45.6498
6800.000000 69.787 51.4514
6900.000000 69.979 56.8561
7000.000000 70.268 61.0713
7100.000000 70.700 65.9453
7200.000000 71.220 70.6291
7300.000000 71.723 74.9227
7400.000000 72.463 78.0749
7500.000000 73.156 80.2863
7620.000000 74.223 81.7349
7750.000000 75.389 79.9487
7880.000000 76.324 74.6429
8000.000000 76.656 67.1609
8120.000000 76.284 59.2180
8250.000000 75.313 53.0567
8380.000000 74.034 50.6285
8500.000000 72.839 51.1231
8620.000000 71.717 53.5935
8750.000000 70.611 57.5061
8850.000000 69.812 61.8739
9000.000000 68.916 69.4894
9120.000000 68.202 74.8404
9250.000000 67.685 82.1120
9380.000000 67.114 90.0958
9500.000000 66.725 97.1977
9620.000000 66.596 105.0817
9750.000000 66.442 112.7954
9880.000000 66.219 120.7676
10000.000000 66.123 129.5956
10150.000000 66.432 138.3918
10300.000000 66.563 146.6092
10440.000000 66.904 154.5937
10600.000000 67.523 162.9727
10750.000000 68.191 169.6974
10900.000000 68.777 174.7791
11060.000000 69.520 178.5373
11200.000000 69.797 -179.0130
11380.000000 69.869 -178.8396
11500.000000 69.836 -176.5275
11720.000000 68.914 -175.2250
11800.000000 68.659 -172.8798
12060.000000 67.200 -163.7635
12200.000000 66.488 -154.4742
12410.000000 65.277 -140.7840
12500.000000 64.965 -134.1751
12650.000000 64.718 -124.0548
12800.000000 65.071 -108.0182
13150.000000 65.489 -81.2025
13200.000000 65.471 -77.1090
13400.000000 66.569 -62.7632
13600.000000 68.112 -49.9761
13800.000000 70.400 -40.5905
14000.000000 71.630 -42.6925
14300.000000 72.625 -40.0115
14500.000000 72.801 -39.3745
14750.000000 72.527 -35.4019
15000.000000 72.158 -28.6052
15250.000000 72.098 -18.6322
15500.000000 72.374 -7.6414
15750.000000 73.105 2.0493
16000.000000 74.130 8.4128
16250.000000 75.547 10.4133
16500.000000 76.213 5.7761
16750.000000 75.853 -0.5491
17000.000000 74.746 -5.4686
17250.000000 74.324 -11.3398
17500.000000 70.501 -37.2099
17750.000000 62.311 -21.4382
18000.000000 59.342 15.8369
18250.000000 58.342 42.9738
18500.000000 57.256 59.7726
18750.000000 56.106 78.3138
19000.000000 54.778 96.7972
19250.000000 52.458 118.3657
19500.000000 50.924 129.6028
19750.000000 49.242 165.4718
20000.000000 46.299 174.5373
20300.000000 45.858 -125.4423
20600.000000 46.245 -101.1215
20900.000000 43.709 -107.7494
21200.000000 45.863 -70.2522
21400.000000 42.635 -40.6010
21800.000000 39.329 -41.6051
22000.000000 31.595 -98.8469
22400.000000 18.978 -0.7902
22700.000000 21.424 19.6810
23000.000000 16.049 69.2490
23300.000000 19.885 -142.3477
23600.000000 26.005 -112.6641

