* Measurement data measured by REW V5.20.13
* Source: Microphone (USB Sound Device        ), MICROPHONE (Master Volume), R, volume: 0,250
* Format: 256k Log Swept Sine, 1 sweep at -12,0 dBFS with no timing reference
* Dated: 22:33:27 09-04-2024
* REW Settings:
*  C-weighting compensation: Off
*  Target level: 75.0 dB
* Note: ; 
* Measurement: Aurum R
* Smoothing: None
* Frequency Step: 1/48 octave
* Start Frequency: 1.000 Hz
*
* Freq(Hz) SPL(dB) Phase(degrees)
1.000000 81.853 124.5550
1.015000 81.555 124.2173
1.030000 81.232 124.0470
1.044000 80.906 124.0524
1.060000 80.503 124.2692
1.075000 80.094 124.6922
1.090000 79.653 125.3433
1.106000 79.138 126.3053
1.120000 78.609 127.3721
1.138000 77.823 129.0327
1.150000 77.240 130.3088
1.172000 76.066 132.9714
1.180000 75.611 134.0359
1.206000 74.048 137.8148
1.220000 73.167 140.0321
1.241000 71.813 143.5652
1.250000 71.227 145.1469
1.265000 70.250 147.8611
1.280000 69.281 150.6605
1.315000 67.104 157.4403
1.320000 66.807 158.4293
1.340000 65.673 162.4142
1.360000 64.636 166.4197
1.380000 63.721 170.4110
1.400000 62.948 174.3532
1.430000 62.107 -179.9016
1.450000 61.791 -176.2342
1.475000 61.710 -171.8348
1.500000 61.980 -167.1785
1.525000 62.560 -162.2177
1.550000 63.408 -157.0329
1.575000 64.478 -151.7045
1.600000 65.727 -146.3132
1.625000 67.112 -140.9393
1.650000 68.589 -135.6635
1.675000 70.113 -130.5662
1.700000 71.642 -125.7280
1.725000 73.131 -121.2294
1.750000 74.536 -117.1509
1.775000 75.814 -113.5731
1.800000 76.921 -110.5763
1.825000 77.813 -108.2412
1.850000 78.500 -106.6296
1.875000 79.092 -105.6974
1.900000 79.602 -105.3688
1.925000 80.039 -105.5686
1.950000 80.411 -106.2216
1.975000 80.726 -107.2525
2.000000 80.993 -108.5861
2.030000 81.263 -110.4800
2.060000 81.489 -112.5714
2.090000 81.687 -114.7302
2.120000 81.872 -116.8265
2.140000 81.994 -118.1251
2.180000 82.257 -120.3113
2.200000 82.406 -121.1242
2.240000 82.686 -122.6076
2.270000 82.864 -123.7419
2.300000 83.017 -124.8880
2.330000 83.147 -126.0397
2.360000 83.257 -127.1908
2.400000 83.377 -128.7139
2.430000 83.451 -129.8395
2.470000 83.530 -131.3060
2.500000 83.579 -132.3723
2.540000 83.635 -133.7372
2.580000 83.684 -135.0310
2.620000 83.710 -136.3015
2.650000 83.714 -137.2407
2.690000 83.699 -138.4651
2.720000 83.675 -139.3555
2.760000 83.629 -140.4957
2.800000 83.569 -141.5708
2.850000 83.479 -142.8039
2.900000 83.377 -143.8915
2.950000 83.268 -144.8159
3.000000 83.130 -145.6191
3.040000 83.002 -146.1783
3.070000 82.898 -146.5463
3.110000 82.752 -146.9650
3.150000 82.602 -147.2973
3.200000 82.415 -147.5846
3.250000 82.238 -147.7218
3.300000 82.079 -147.7000
3.350000 81.924 -147.4603
3.400000 81.764 -147.0020
3.450000 81.607 -146.3787
3.500000 81.458 -145.6440
3.550000 81.326 -144.8516
3.600000 81.217 -144.0551
3.650000 81.138 -143.3081
3.700000 81.095 -142.5878
3.750000 81.081 -141.7670
3.820000 81.104 -140.5415
3.870000 81.143 -139.6874
3.950000 81.229 -138.5118
4.000000 81.290 -137.9832
4.060000 81.368 -137.6258
4.120000 81.473 -137.4829
4.180000 81.596 -137.5224
4.250000 81.748 -137.7777
4.310000 81.872 -138.1576
4.370000 81.978 -138.6694
4.440000 82.071 -139.4478
4.500000 82.142 -140.3301
4.550000 82.193 -141.1863
4.620000 82.249 -142.5120
4.680000 82.280 -143.7127
4.750000 82.291 -145.1190
4.820000 82.272 -146.5482
4.870000 82.242 -147.6414
4.940000 82.180 -149.2249
5.000000 82.110 -150.5865
5.080000 81.997 -152.3325
5.150000 81.882 -153.7345
5.220000 81.742 -155.0916
5.300000 81.557 -156.5873
5.380000 81.358 -157.9700
5.450000 81.183 -159.0427
5.520000 81.016 -159.9502
5.600000 80.814 -160.7935
5.700000 80.557 -161.6126
5.800000 80.326 -162.2359
5.900000 80.150 -162.7061
6.000000 80.015 -162.8992
6.080000 79.935 -162.9495
6.150000 79.887 -163.0103
6.220000 79.863 -163.1630
6.300000 79.870 -163.4317
6.400000 79.928 -163.8138
6.500000 80.017 -164.3337
6.600000 80.113 -165.0851
6.700000 80.223 -166.1152
6.800000 80.351 -167.3596
6.900000 80.473 -168.7382
7.000000 80.573 -170.1926
7.100000 80.659 -171.8088
7.200000 80.732 -173.5057
7.300000 80.787 -175.1589
7.400000 80.819 -176.7197
7.500000 80.829 -178.2651
7.620000 80.824 -179.9924
7.750000 80.809 178.4297
7.880000 80.772 177.1219
8.000000 80.739 176.1357
8.120000 80.723 175.3758
8.250000 80.716 174.8399
8.380000 80.728 174.4628
8.500000 80.767 174.1668
8.620000 80.830 173.9805
8.750000 80.914 173.7814
8.850000 80.985 173.5567
9.000000 81.109 173.1618
9.120000 81.208 172.7909
9.250000 81.301 172.3098
9.380000 81.386 171.7527
9.500000 81.450 171.2352
9.620000 81.496 170.7372
9.750000 81.527 170.1990
9.880000 81.545 169.7245
10.000000 81.549 169.3701
10.150000 81.538 169.0130
10.300000 81.522 168.7529
10.440000 81.503 168.6148
10.600000 81.479 168.5174
10.750000 81.461 168.4487
10.900000 81.444 168.4045
11.060000 81.422 168.3156
11.200000 81.403 168.2072
11.380000 81.369 168.0254
11.500000 81.339 167.8704
11.720000 81.272 167.5470
11.800000 81.242 167.4255
12.060000 81.133 167.0077
12.200000 81.070 166.7792
12.410000 80.970 166.4195
12.500000 80.928 166.2456
12.650000 80.858 165.9373
12.800000 80.788 165.5861
13.150000 80.620 164.5512
13.200000 80.595 164.3833
13.400000 80.491 163.6519
13.600000 80.383 162.8795
13.800000 80.270 162.0822
14.000000 80.161 161.2939
14.300000 80.014 160.1332
14.500000 79.935 159.3612
14.750000 79.860 158.3448
15.000000 79.809 157.2503
15.250000 79.771 156.0581
15.500000 79.739 154.8311
15.750000 79.707 153.6180
16.000000 79.674 152.5112
16.250000 79.648 151.5554
16.500000 79.633 150.7529
16.750000 79.636 150.0837
17.000000 79.652 149.4804
17.250000 79.678 148.9184
17.500000 79.704 148.3690
17.750000 79.720 147.8560
18.000000 79.724 147.4023
18.250000 79.716 147.0350
18.500000 79.698 146.7644
18.750000 79.673 146.5702
19.000000 79.644 146.4332
19.250000 79.609 146.3112
19.500000 79.567 146.1907
19.750000 79.515 146.0613
20.000000 79.452 145.9247
20.299999 79.366 145.7496
20.600000 79.271 145.5499
20.900000 79.169 145.3024
21.200001 79.061 144.9811
21.400000 78.986 144.7230
21.799999 78.828 144.1219
22.000000 78.748 143.7899
22.400000 78.594 143.0785
22.700001 78.491 142.4898
23.000000 78.399 141.8286
23.299999 78.317 141.0919
23.600000 78.241 140.3086
24.000000 78.146 139.2677
24.299999 78.084 138.5476
24.700001 78.022 137.6928
25.000000 77.992 137.1086
25.400000 77.968 136.3670
25.799999 77.947 135.6739
26.200001 77.919 135.0886
26.500000 77.894 134.7500
26.900000 77.857 134.4256
27.200001 77.829 134.2462
27.600000 77.785 134.0489
28.000000 77.729 133.8780
28.500000 77.642 133.6955
29.000000 77.539 133.5055
29.500000 77.422 133.2424
30.000000 77.291 132.8934
30.400000 77.181 132.5688
30.700001 77.100 132.2947
31.100000 76.998 131.8652
31.500000 76.900 131.3551
32.000000 76.781 130.6526
32.500000 76.672 129.9635
33.000000 76.583 129.3107
33.500000 76.514 128.6617
34.000000 76.452 128.0379
34.500000 76.392 127.5119
35.000000 76.338 127.0998
35.500000 76.289 126.7479
36.000000 76.234 126.4259
36.500000 76.168 126.1526
37.000000 76.095 125.9270
37.500000 76.015 125.7088
38.200001 75.891 125.3777
38.700001 75.797 125.1305
39.500000 75.650 124.6610
40.000000 75.559 124.3078
40.599998 75.455 123.8677
41.200001 75.362 123.4091
41.799999 75.277 122.9074
42.500000 75.173 122.3486
43.099998 75.089 121.9661
43.700001 75.012 121.6333
44.400002 74.926 121.2533
45.000000 74.850 120.9295
45.500000 74.781 120.6680
46.200001 74.681 120.3546
46.799999 74.602 120.1322
47.500000 74.522 119.8101
48.200001 74.436 119.4313
48.700001 74.374 119.2068
49.400002 74.302 118.9147
50.000000 74.244 118.5659
50.799999 74.135 118.0723
51.500000 74.024 117.8140
52.200001 73.921 117.6495
53.000000 73.810 117.4217
53.799999 73.698 117.1660
54.500000 73.609 116.8970
55.200001 73.522 116.5295
56.000000 73.414 116.0926
57.000000 73.287 115.6680
58.000000 73.159 115.2888
59.000000 73.021 115.2710
60.000000 72.929 115.4154
60.799999 72.853 115.4002
61.500000 72.773 115.4317
62.200001 72.705 115.5461
63.000000 72.654 115.6175
64.000000 72.614 115.5334
65.000000 72.610 115.3375
66.000000 72.626 114.8400
67.000000 72.620 114.2054
68.000000 72.588 113.5458
69.000000 72.521 112.9636
70.000000 72.440 112.4376
71.000000 72.339 111.8952
72.000000 72.224 111.4375
73.000000 72.126 111.1087
74.000000 72.055 110.6905
75.000000 71.975 110.2370
76.199997 71.888 109.8140
77.500000 71.783 109.3287
78.800003 71.684 109.1078
80.000000 71.604 108.6392
81.199997 71.480 108.3924
82.500000 71.399 108.2014
83.800003 71.317 107.8645
85.000000 71.233 107.4517
86.199997 71.143 107.1622
87.500000 71.062 106.7321
88.500000 70.983 106.5307
90.000000 70.910 106.2468
91.199997 70.840 106.0219
92.500000 70.772 105.5622
93.800003 70.647 105.3945
95.000000 70.625 105.1786
96.199997 70.548 104.6556
97.500000 70.490 104.4241
98.800003 70.443 104.2554
100.000000 70.426 103.7772
101.500000 70.273 103.5679
103.000000 70.244 103.3690
104.400002 70.137 103.0815
106.000000 70.102 102.7682
107.500000 70.042 102.5595
109.000000 70.009 102.1066
110.599998 69.946 101.8114
112.000000 69.881 101.4878
113.800003 69.835 101.1341
115.000000 69.808 100.7339
117.199997 69.699 100.0445
118.000000 69.675 99.9078
120.599998 69.580 99.2566
122.000000 69.566 98.9064
124.099998 69.479 98.5675
125.000000 69.465 98.2936
126.500000 69.407 97.8841
128.000000 69.353 97.3400
131.500000 69.239 96.5094
132.000000 69.241 96.3864
134.000000 69.144 95.8366
136.000000 69.114 95.6644
138.000000 69.028 95.1299
140.000000 68.998 94.8029
143.000000 68.875 94.2037
145.000000 68.825 93.5729
147.500000 68.743 93.2312
150.000000 68.640 93.1451
152.500000 68.670 92.6688
155.000000 68.695 92.0790
157.500000 68.686 91.4370
160.000000 68.660 90.7622
162.500000 68.604 90.1740
165.000000 68.550 89.3879
167.500000 68.539 88.7100
170.000000 68.471 88.0835
172.500000 68.449 87.4441
175.000000 68.388 86.9713
177.500000 68.369 86.4642
180.000000 68.316 85.5627
182.500000 68.257 85.1768
185.000000 68.236 84.4055
187.500000 68.228 83.9876
190.000000 68.204 83.4430
192.500000 68.159 82.8101
195.000000 68.137 82.2991
197.500000 68.115 81.6944
200.000000 68.118 81.0877
203.000000 68.071 80.4322
206.000000 68.037 79.9282
209.000000 68.007 79.4238
212.000000 67.948 78.7279
214.000000 67.919 78.2775
218.000000 67.953 77.1375
220.000000 67.920 77.0225
224.000000 67.889 75.7954
227.000000 67.863 75.3108
230.000000 67.855 74.7025
233.000000 67.814 73.9534
236.000000 67.839 73.1869
240.000000 67.785 72.4947
243.000000 67.773 71.7521
247.000000 67.747 71.0000
250.000000 67.763 70.6601
254.000000 67.751 69.5228
258.000000 67.704 68.8586
262.000000 67.674 67.7843
265.000000 67.660 67.1544
269.000000 67.678 66.3548
272.000000 67.662 65.7652
276.000000 67.632 65.1946
280.000000 67.622 64.2175
285.000000 67.588 63.2168
290.000000 67.610 62.1960
295.000000 67.564 61.2199
300.000000 67.612 60.2105
304.000000 67.578 59.2790
307.000000 67.557 58.7026
311.000000 67.591 58.1886
315.000000 67.531 57.3066
320.000000 67.536 56.3348
325.000000 67.533 55.4419
330.000000 67.533 54.8127
335.000000 67.530 53.6354
340.000000 67.552 52.6783
345.000000 67.523 51.8788
350.000000 67.505 50.8640
355.000000 67.546 50.1053
360.000000 67.531 49.2899
365.000000 67.554 48.4803
370.000000 67.529 47.5442
375.000000 67.553 46.6559
382.000000 67.579 45.7693
387.000000 67.572 44.9234
395.000000 67.558 43.5470
400.000000 67.574 42.8125
406.000000 67.591 41.6674
412.000000 67.590 40.8154
418.000000 67.610 40.0403
425.000000 67.648 39.0419
431.000000 67.646 38.1336
437.000000 67.669 37.2545
444.000000 67.711 36.2531
450.000000 67.686 35.3006
455.000000 67.716 34.6229
462.000000 67.729 33.6927
468.000000 67.750 32.7297
475.000000 67.814 31.8576
482.000000 67.841 30.7758
487.000000 67.897 30.2490
494.000000 67.925 29.2878
500.000000 67.936 28.6385
508.000000 67.963 27.6554
515.000000 67.999 26.5235
522.000000 68.049 25.4562
530.000000 68.102 24.6609
538.000000 68.167 23.7002
545.000000 68.208 22.6194
552.000000 68.252 21.9527
560.000000 68.321 20.5680
570.000000 68.378 19.5248
580.000000 68.446 18.1205
590.000000 68.478 16.7933
600.000000 68.553 15.4993
608.000000 68.615 14.4342
615.000000 68.629 13.4919
622.000000 68.661 12.5491
630.000000 68.702 11.3997
640.000000 68.740 10.4741
650.000000 68.833 9.4118
660.000000 68.881 8.0731
670.000000 68.919 7.0662
680.000000 68.997 5.6903
690.000000 69.007 4.6548
700.000000 69.094 3.6240
710.000000 69.122 2.4812
720.000000 69.208 1.5080
730.000000 69.240 0.2191
740.000000 69.282 -0.6652
750.000000 69.313 -1.9224
762.000000 69.395 -2.9835
775.000000 69.474 -4.2593
788.000000 69.567 -5.6043
800.000000 69.651 -6.6689
812.000000 69.753 -7.8636
825.000000 69.784 -9.0044
838.000000 69.870 -10.3487
850.000000 69.987 -11.3554
862.000000 70.043 -12.4608
875.000000 70.127 -13.8878
885.000000 70.224 -14.8814
900.000000 70.324 -16.2608
912.000000 70.374 -17.3298
925.000000 70.491 -18.5929
938.000000 70.567 -19.8762
950.000000 70.638 -20.8973
962.000000 70.721 -22.0955
975.000000 70.806 -23.3335
988.000000 70.894 -24.7143
1000.000000 70.978 -25.1783
1015.000000 71.067 -27.1667
1030.000000 71.160 -28.6968
1044.000000 71.241 -30.1534
1060.000000 71.357 -31.9627
1075.000000 71.414 -33.5459
1090.000000 71.502 -35.0577
1106.000000 71.597 -36.6296
1120.000000 71.636 -38.3888
1138.000000 71.687 -39.9599
1150.000000 71.728 -41.2102
1172.000000 71.808 -43.5100
1180.000000 71.811 -44.1371
1206.000000 71.831 -46.8592
1220.000000 71.857 -48.1037
1241.000000 71.868 -50.1586
1250.000000 71.855 -51.0294
1265.000000 71.868 -52.3228
1280.000000 71.859 -53.5390
1315.000000 71.823 -56.3141
1320.000000 71.809 -56.8041
1340.000000 71.796 -58.1537
1360.000000 71.759 -59.6339
1380.000000 71.699 -60.9960
1400.000000 71.643 -62.1314
1430.000000 71.593 -63.7983
1450.000000 71.549 -64.6525
1475.000000 71.496 -65.8177
1500.000000 71.447 -66.7653
1525.000000 71.431 -67.7680
1550.000000 71.387 -68.3129
1575.000000 71.351 -69.0080
1600.000000 71.434 -69.5841
1625.000000 71.346 -70.2758
1650.000000 71.357 -70.8194
1675.000000 71.344 -71.1325
1700.000000 71.379 -71.2740
1725.000000 71.434 -71.8953
1750.000000 71.507 -71.9592
1775.000000 71.519 -72.1527
1800.000000 71.631 -72.4819
1825.000000 71.688 -72.9262
1850.000000 71.791 -73.0208
1875.000000 71.882 -73.4145
1900.000000 72.007 -73.5408
1925.000000 72.110 -73.8487
1950.000000 72.228 -74.0909
1975.000000 72.362 -74.5464
2000.000000 72.549 -74.1882
2030.000000 72.656 -75.3267
2060.000000 72.843 -75.7271
2090.000000 73.026 -76.3778
2120.000000 73.232 -76.8812
2140.000000 73.353 -77.2970
2180.000000 73.623 -78.2817
2200.000000 73.785 -78.6658
2240.000000 74.035 -79.8079
2270.000000 74.283 -80.3696
2300.000000 74.519 -81.1467
2330.000000 74.811 -82.1705
2360.000000 75.071 -83.5475
2400.000000 75.399 -85.5296
2430.000000 75.623 -87.4122
2470.000000 75.877 -89.7722
2500.000000 76.037 -91.5613
2540.000000 76.233 -94.0264
2580.000000 76.389 -96.2923
2620.000000 76.567 -98.9193
2650.000000 76.665 -100.7205
2690.000000 76.799 -103.2467
2720.000000 76.876 -105.1652
2760.000000 76.953 -107.8880
2800.000000 76.996 -110.2897
2850.000000 77.022 -113.2576
2900.000000 77.046 -116.2602
2950.000000 77.042 -118.8779
3000.000000 76.981 -121.8230
3040.000000 77.026 -123.9513
3070.000000 76.983 -125.3989
3110.000000 76.981 -127.7138
3150.000000 76.937 -129.7178
3200.000000 76.842 -132.4182
3250.000000 76.741 -135.0515
3300.000000 76.622 -137.7967
3350.000000 76.438 -140.3931
3400.000000 76.242 -142.5020
3450.000000 76.024 -144.5864
3500.000000 75.818 -146.3633
3550.000000 75.604 -148.0524
3600.000000 75.412 -149.4493
3650.000000 75.191 -150.7684
3700.000000 75.010 -151.8890
3750.000000 74.782 -152.9398
3820.000000 74.574 -154.4180
3870.000000 74.411 -154.9684
3950.000000 74.198 -155.3539
4000.000000 74.246 -156.5184
4060.000000 74.047 -156.7570
4120.000000 73.980 -157.2475
4180.000000 73.999 -158.1365
4250.000000 73.928 -158.7110
4310.000000 74.018 -159.7400
4370.000000 74.027 -160.8805
4440.000000 74.079 -162.7108
4500.000000 74.085 -164.0898
4550.000000 74.112 -165.7413
4620.000000 74.093 -167.9247
4680.000000 74.068 -170.2563
4750.000000 74.006 -172.7539
4820.000000 73.864 -175.6427
4870.000000 73.672 -177.3750
4940.000000 73.417 179.6588
5000.000000 73.002 177.7643
5080.000000 72.601 175.6136
5150.000000 72.185 174.5453
5220.000000 71.751 174.0709
5300.000000 71.291 174.1802
5380.000000 70.906 174.4594
5450.000000 70.635 175.3553
5520.000000 70.456 176.0101
5600.000000 70.233 176.6544
5700.000000 70.043 177.9860
5800.000000 69.920 178.9839
5900.000000 69.886 -179.6315
6000.000000 69.907 -179.2529
6080.000000 69.938 -178.0361
6150.000000 69.940 -177.6309
6220.000000 69.961 -177.0656
6300.000000 70.094 -176.9501
6400.000000 70.126 -175.3987
6500.000000 70.344 -176.4824
6600.000000 70.349 -176.6389
6700.000000 70.353 -175.6891
6800.000000 70.409 -174.6755
6900.000000 70.608 -173.2838
7000.000000 70.888 -171.9164
7100.000000 71.244 -170.8356
7200.000000 71.807 -170.2251
7300.000000 72.384 -169.6028
7400.000000 73.040 -170.1929
7500.000000 73.824 -171.2502
7620.000000 74.817 -174.6735
7750.000000 75.906 179.1526
7880.000000 76.752 169.8228
8000.000000 77.073 159.4807
8120.000000 76.802 147.6640
8250.000000 75.875 138.1869
8380.000000 74.727 131.3259
8500.000000 73.539 127.9077
8620.000000 72.508 126.7753
8750.000000 71.437 126.5567
8850.000000 70.793 126.8821
9000.000000 69.844 129.0062
9120.000000 69.227 131.5815
9250.000000 68.602 134.5729
9380.000000 68.152 137.9769
9500.000000 67.798 141.2687
9620.000000 67.581 145.3415
9750.000000 67.385 149.5209
9880.000000 67.260 153.0649
10000.000000 67.281 158.1194
10150.000000 67.366 162.6501
10300.000000 67.482 168.0818
10440.000000 67.846 171.7755
10600.000000 68.387 177.3756
10750.000000 69.022 179.9462
10900.000000 69.719 -176.3938
11060.000000 70.601 -175.3191
11200.000000 71.362 -175.3005
11380.000000 72.239 -178.3629
11500.000000 72.580 178.6292
11720.000000 72.524 172.7656
11800.000000 72.360 171.9310
12060.000000 71.610 169.1315
12200.000000 71.055 170.1523
12410.000000 70.407 175.6395
12500.000000 70.371 179.1724
12650.000000 70.265 -177.1598
12800.000000 70.274 -170.7897
13150.000000 71.478 -161.4923
13200.000000 71.659 -160.1346
13400.000000 72.701 -157.4340
13600.000000 73.817 -157.0984
13800.000000 74.718 -160.5399
14000.000000 75.293 -165.7867
14300.000000 75.296 -171.9600
14500.000000 74.951 -175.7334
14750.000000 74.225 -175.3324
15000.000000 73.869 -172.8476
15250.000000 73.847 -168.6334
15500.000000 74.285 -164.8892
15750.000000 75.154 -162.3508
16000.000000 76.327 -162.4358
16250.000000 77.559 -167.6597
16500.000000 78.592 -179.2083
16750.000000 76.932 165.4908
17000.000000 76.717 163.7350
17250.000000 77.291 150.1698
17500.000000 73.064 121.1833
17750.000000 68.139 132.4262
18000.000000 66.054 145.2051
18250.000000 64.206 155.0093
18500.000000 62.703 160.4723
18750.000000 60.504 168.8037
19000.000000 58.375 -179.5631
19250.000000 56.146 -166.6977
19500.000000 54.640 -150.7429
19750.000000 51.934 -132.0558
20000.000000 52.916 -110.1140
20300.000000 51.378 -94.7353
20600.000000 49.850 -82.8712
20900.000000 49.809 -89.8896
21200.000000 49.213 -62.8369
21400.000000 44.471 -44.7432
21800.000000 42.335 -51.1287
22000.000000 36.178 -117.0004
22400.000000 12.767 139.0021
22700.000000 15.012 -35.4904
23000.000000 9.211 -124.6367
23300.000000 21.825 -68.3105
23600.000000 27.145 65.6055

