* Measurement data measured by REW V5.20.13
* Source: Microphone (USB Sound Device        ), MICROPHONE (Master Volume), R, volume: 0,250
* Format: 256k Log Swept Sine, 1 sweep at -12,0 dBFS with no timing reference
* Dated: 23:56:50 18-05-2024
* REW Settings:
*  C-weighting compensation: Off
*  Target level: 75.0 dB
* Note: ; 
* Measurement: BQEYZ Cloud deep R
* Smoothing: None
* Frequency Step: 1/48 octave
* Start Frequency: 1.000 Hz
*
* Freq(Hz) SPL(dB) Phase(degrees)
1.000000 84.619 120.9101
1.015000 84.444 120.0083
1.030000 84.263 119.1036
1.044000 84.088 118.2563
1.060000 83.880 117.2843
1.075000 83.677 116.3693
1.090000 83.467 115.4503
1.106000 83.235 114.4900
1.120000 83.040 113.7977
1.138000 82.799 113.1182
1.150000 82.643 112.7772
1.172000 82.363 112.3363
1.180000 82.263 112.2225
1.206000 81.933 111.9626
1.220000 81.752 111.8589
1.241000 81.471 111.6950
1.250000 81.346 111.6069
1.265000 81.129 111.4163
1.280000 80.901 111.1488
1.315000 80.309 110.0849
1.320000 80.217 109.8689
1.340000 79.826 108.8079
1.360000 79.396 107.3864
1.380000 78.920 105.5448
1.400000 78.396 103.2234
1.430000 77.506 98.7110
1.450000 76.836 94.9288
1.475000 75.889 89.1963
1.500000 74.694 82.0854
1.525000 73.263 73.7130
1.550000 71.647 64.2762
1.575000 69.895 53.9721
1.600000 68.056 42.9981
1.625000 66.181 31.5513
1.650000 64.318 19.8289
1.675000 62.517 8.0279
1.700000 60.829 -3.6543
1.725000 59.301 -15.0206
1.750000 57.985 -25.8739
1.775000 56.929 -36.0169
1.800000 56.183 -45.2524
1.825000 55.797 -53.3835
1.850000 55.816 -60.4541
1.875000 56.226 -66.9628
1.900000 56.977 -72.9690
1.925000 58.017 -78.5096
1.950000 59.294 -83.6218
1.975000 60.757 -88.3427
2.000000 62.354 -92.7092
2.030000 64.375 -97.5334
2.060000 66.425 -101.9648
2.090000 68.415 -106.0674
2.120000 70.257 -109.9052
2.140000 71.357 -112.3482
2.180000 73.136 -117.0425
2.200000 73.762 -119.3295
2.240000 74.689 -123.3630
2.270000 75.201 -125.8388
2.300000 75.576 -127.9141
2.330000 75.834 -129.6523
2.360000 75.993 -131.1165
2.400000 76.087 -132.7522
2.430000 76.092 -133.8235
2.470000 76.050 -135.1651
2.500000 76.007 -136.1881
2.540000 75.970 -137.6950
2.580000 75.986 -139.4746
2.620000 75.975 -141.3651
2.650000 75.936 -142.7955
2.690000 75.841 -144.6782
2.720000 75.739 -146.0440
2.760000 75.562 -147.7624
2.800000 75.340 -149.3168
2.850000 75.000 -150.9512
2.900000 74.590 -152.1496
2.950000 74.102 -152.8863
3.000000 73.449 -153.6663
3.040000 72.826 -154.2566
3.070000 72.323 -154.5868
3.110000 71.627 -154.7636
3.150000 70.932 -154.5093
3.200000 70.114 -153.3696
3.250000 69.408 -151.0587
3.300000 68.875 -147.2960
3.350000 68.458 -141.3123
3.400000 68.100 -133.2324
3.450000 67.817 -123.8432
3.500000 67.624 -113.9317
3.550000 67.538 -104.2848
3.600000 67.574 -95.6892
3.650000 67.749 -88.9320
3.700000 68.113 -84.3237
3.750000 68.716 -81.0038
3.820000 69.830 -78.0537
3.870000 70.717 -76.8727
3.950000 72.090 -76.0038
4.000000 72.805 -75.7699
4.060000 73.429 -75.6285
4.120000 73.921 -76.2772
4.180000 74.319 -77.6012
4.250000 74.682 -79.6625
4.310000 74.921 -81.5830
4.370000 75.108 -83.3787
4.440000 75.265 -85.1923
4.500000 75.325 -86.8678
4.550000 75.326 -88.3130
4.620000 75.263 -90.3030
4.680000 75.160 -91.8775
4.750000 74.992 -93.4314
4.820000 74.765 -94.7252
4.870000 74.551 -95.6064
4.940000 74.199 -96.6705
5.000000 73.867 -97.3233
5.080000 73.412 -97.6508
5.150000 73.021 -97.2712
5.220000 72.577 -96.2328
5.300000 72.030 -94.4059
5.380000 71.517 -92.0973
5.450000 71.155 -89.8470
5.520000 70.925 -87.4637
5.600000 70.796 -84.0511
5.700000 70.781 -79.2830
5.800000 70.881 -75.0114
5.900000 71.060 -72.2523
6.000000 71.393 -70.6929
6.080000 71.717 -70.0946
6.150000 71.991 -69.9843
6.220000 72.212 -70.2100
6.300000 72.401 -70.9861
6.400000 72.597 -72.7823
6.500000 72.731 -75.1121
6.600000 72.785 -77.5653
6.700000 72.749 -80.2428
6.800000 72.635 -83.2045
6.900000 72.462 -86.1719
7.000000 72.241 -88.9181
7.100000 71.949 -91.6294
7.200000 71.612 -94.2082
7.300000 71.270 -96.4631
7.400000 70.932 -98.2710
7.500000 70.568 -99.7253
7.620000 70.171 -101.0736
7.750000 69.878 -102.0640
7.880000 69.697 -102.3883
8.000000 69.638 -102.5788
8.120000 69.709 -103.1041
8.250000 69.943 -103.8243
8.380000 70.260 -104.8745
8.500000 70.574 -106.3546
8.620000 70.940 -108.2890
8.750000 71.338 -110.6280
8.850000 71.611 -112.4812
9.000000 71.996 -115.5192
9.120000 72.272 -117.8946
9.250000 72.526 -120.2124
9.380000 72.739 -122.3771
9.500000 72.914 -124.1068
9.620000 73.072 -125.4896
9.750000 73.220 -126.6594
9.880000 73.369 -127.5364
10.000000 73.517 -128.0602
10.150000 73.707 -128.3719
10.300000 73.917 -128.5500
10.440000 74.134 -128.5685
10.600000 74.390 -128.5361
10.750000 74.629 -128.5822
10.900000 74.867 -128.6514
11.060000 75.095 -128.7605
11.200000 75.276 -128.8957
11.380000 75.480 -129.0329
11.500000 75.595 -129.0851
11.720000 75.775 -129.1016
11.800000 75.834 -129.0688
12.060000 76.000 -128.8647
12.200000 76.081 -128.7419
12.410000 76.192 -128.5545
12.500000 76.233 -128.5053
12.650000 76.295 -128.4584
12.800000 76.345 -128.4506
13.150000 76.400 -128.5880
13.200000 76.402 -128.6107
13.400000 76.391 -128.7066
13.600000 76.368 -128.7908
13.800000 76.336 -128.8428
14.000000 76.309 -128.9392
14.300000 76.279 -129.2245
14.500000 76.269 -129.6158
14.750000 76.253 -130.3550
15.000000 76.227 -131.3675
15.250000 76.181 -132.5537
15.500000 76.126 -133.7916
15.750000 76.069 -135.0182
16.000000 76.032 -136.1736
16.250000 76.028 -137.3144
16.500000 76.059 -138.4772
16.750000 76.123 -139.7281
17.000000 76.204 -141.0557
17.250000 76.295 -142.4149
17.500000 76.385 -143.7375
17.750000 76.475 -144.9239
18.000000 76.569 -145.9531
18.250000 76.671 -146.8047
18.500000 76.784 -147.5262
18.750000 76.903 -148.1526
19.000000 77.024 -148.7156
19.250000 77.137 -149.2265
19.500000 77.239 -149.6688
19.750000 77.328 -150.0322
20.000000 77.404 -150.3062
20.299999 77.485 -150.5489
20.600000 77.554 -150.7398
20.900000 77.609 -150.9268
21.200001 77.645 -151.1359
21.400000 77.658 -151.2811
21.799999 77.660 -151.5713
22.000000 77.654 -151.7194
22.400000 77.634 -152.0598
22.700001 77.617 -152.4093
23.000000 77.596 -152.8781
23.299999 77.566 -153.4533
23.600000 77.530 -154.0981
24.000000 77.478 -155.0047
24.299999 77.447 -155.6982
24.700001 77.425 -156.6580
25.000000 77.423 -157.4214
25.400000 77.436 -158.4866
25.799999 77.461 -159.5427
26.200001 77.499 -160.5266
26.500000 77.536 -161.2067
26.900000 77.595 -162.0457
27.200001 77.641 -162.6240
27.600000 77.698 -163.3067
28.000000 77.749 -163.8608
28.500000 77.807 -164.3919
29.000000 77.856 -164.8386
29.500000 77.886 -165.2592
30.000000 77.892 -165.6432
30.400000 77.886 -165.9354
30.700001 77.878 -166.1731
31.100000 77.862 -166.5489
31.500000 77.838 -166.9935
32.000000 77.796 -167.6032
32.500000 77.755 -168.2405
33.000000 77.723 -168.9287
33.500000 77.701 -169.6815
34.000000 77.685 -170.4538
34.500000 77.678 -171.1953
35.000000 77.681 -171.8951
35.500000 77.690 -172.5438
36.000000 77.704 -173.1205
36.500000 77.721 -173.6360
37.000000 77.737 -174.1321
37.500000 77.741 -174.6101
38.200001 77.726 -175.1628
38.700001 77.714 -175.4865
39.500000 77.694 -176.0991
40.000000 77.667 -176.5472
40.599998 77.625 -177.0466
41.200001 77.592 -177.5072
41.799999 77.574 -178.0420
42.500000 77.549 -178.7895
43.099998 77.515 -179.3998
43.700001 77.481 -179.8805
44.400002 77.461 179.6528
45.000000 77.455 179.2107
45.500000 77.443 178.8025
46.200001 77.411 178.2622
46.799999 77.377 177.8878
47.500000 77.349 177.5077
48.200001 77.334 177.0289
48.700001 77.313 176.5892
49.400002 77.254 176.0406
50.000000 77.204 175.8206
50.799999 77.193 175.5901
51.500000 77.193 175.1135
52.200001 77.159 174.6292
53.000000 77.121 174.2189
53.799999 77.078 173.7404
54.500000 77.032 173.4083
55.200001 77.011 173.0558
56.000000 76.975 172.3497
57.000000 76.879 171.7660
58.000000 76.865 171.3317
59.000000 76.815 170.6113
60.000000 76.773 170.4227
60.799999 76.758 170.0667
61.500000 76.699 169.9220
62.200001 76.685 170.0842
63.000000 76.722 169.6808
64.000000 76.610 168.7653
65.000000 76.501 168.7383
66.000000 76.456 168.2541
67.000000 76.358 167.9001
68.000000 76.314 167.6702
69.000000 76.266 167.2788
70.000000 76.205 166.9106
71.000000 76.134 166.6595
72.000000 76.069 166.3569
73.000000 75.964 166.2169
74.000000 75.916 166.3980
75.000000 75.877 166.2757
76.199997 75.857 166.7012
77.500000 75.915 166.1021
78.800003 75.851 166.1655
80.000000 75.860 165.4070
81.199997 75.746 165.6798
82.500000 75.797 164.8537
83.800003 75.658 164.8865
85.000000 75.688 164.3836
86.199997 75.609 164.2695
87.500000 75.600 163.9738
88.500000 75.582 163.9212
90.000000 75.522 163.1657
91.199997 75.408 163.2013
92.500000 75.344 163.3690
93.800003 75.350 163.1325
95.000000 75.276 162.5359
96.199997 75.198 162.3553
97.500000 75.163 162.2689
98.800003 75.152 161.8271
100.000000 75.082 161.5912
101.500000 75.038 161.3767
103.000000 74.957 161.1624
104.400002 74.891 160.9832
106.000000 74.822 160.7147
107.500000 74.754 160.5998
109.000000 74.701 160.4362
110.599998 74.634 160.3037
112.000000 74.576 160.2260
113.800003 74.511 160.0939
115.000000 74.452 159.9737
117.199997 74.364 159.9100
118.000000 74.330 159.8396
120.599998 74.225 159.6344
122.000000 74.176 159.5918
124.099998 74.099 159.4861
125.000000 74.070 159.4945
126.500000 74.016 159.4653
128.000000 73.942 159.4241
131.500000 73.808 159.4025
132.000000 73.795 159.4288
134.000000 73.729 159.3570
136.000000 73.654 159.4415
138.000000 73.588 159.5581
140.000000 73.524 159.4700
143.000000 73.435 159.5911
145.000000 73.370 159.6136
147.500000 73.280 159.7914
150.000000 73.217 159.9458
152.500000 73.179 159.8103
155.000000 73.108 159.8052
157.500000 73.039 159.9000
160.000000 72.978 159.9772
162.500000 72.918 160.0508
165.000000 72.842 160.1474
167.500000 72.781 160.1583
170.000000 72.719 160.3123
172.500000 72.664 160.4994
175.000000 72.592 160.4633
177.500000 72.537 160.5547
180.000000 72.488 160.7441
182.500000 72.426 160.9370
185.000000 72.361 161.0065
187.500000 72.314 161.1255
190.000000 72.246 161.3087
192.500000 72.184 161.4662
195.000000 72.142 161.6213
197.500000 72.093 161.6006
200.000000 72.041 161.7430
203.000000 71.995 161.9664
206.000000 71.930 162.1998
209.000000 71.861 162.4476
212.000000 71.813 162.6223
214.000000 71.797 162.6592
218.000000 71.698 162.9779
220.000000 71.663 163.0996
224.000000 71.587 163.6047
227.000000 71.554 163.7907
230.000000 71.500 163.7848
233.000000 71.451 164.1331
236.000000 71.408 164.4012
240.000000 71.361 164.5613
243.000000 71.309 164.7867
247.000000 71.240 164.9883
250.000000 71.208 165.1495
254.000000 71.157 165.5102
258.000000 71.110 165.8662
262.000000 71.041 166.2122
265.000000 70.998 166.5465
269.000000 70.943 166.8882
272.000000 70.901 167.1951
276.000000 70.856 167.5166
280.000000 70.839 168.0115
285.000000 70.809 168.3790
290.000000 70.784 168.6345
295.000000 70.721 168.8467
300.000000 70.670 169.1558
304.000000 70.629 169.5578
307.000000 70.628 169.7806
311.000000 70.574 170.1744
315.000000 70.499 170.3864
320.000000 70.483 170.7688
325.000000 70.427 171.1814
330.000000 70.401 171.6212
335.000000 70.359 171.8688
340.000000 70.342 172.4063
345.000000 70.269 172.6342
350.000000 70.275 172.9709
355.000000 70.224 173.4925
360.000000 70.203 173.8541
365.000000 70.174 174.2340
370.000000 70.148 174.5757
375.000000 70.103 174.9306
382.000000 70.086 175.5465
387.000000 70.053 175.9130
395.000000 70.012 176.4196
400.000000 69.971 176.8494
406.000000 69.973 177.3188
412.000000 69.931 177.6250
418.000000 69.899 178.1348
425.000000 69.881 178.8101
431.000000 69.841 179.0574
437.000000 69.835 179.4728
444.000000 69.788 -179.8755
450.000000 69.787 -179.5641
455.000000 69.768 -179.2487
462.000000 69.723 -178.5827
468.000000 69.714 -178.2813
475.000000 69.705 -177.8439
482.000000 69.707 -177.1562
487.000000 69.665 -176.9645
494.000000 69.663 -176.2813
500.000000 69.607 -175.9435
508.000000 69.614 -175.1106
515.000000 69.580 -174.8775
522.000000 69.610 -174.2996
530.000000 69.586 -173.7101
538.000000 69.595 -173.2000
545.000000 69.592 -172.4376
552.000000 69.559 -172.1573
560.000000 69.573 -171.5445
570.000000 69.528 -170.9983
580.000000 69.534 -170.3048
590.000000 69.536 -169.5789
600.000000 69.527 -168.8691
608.000000 69.530 -168.4815
615.000000 69.535 -167.7979
622.000000 69.511 -167.1860
630.000000 69.534 -166.8012
640.000000 69.553 -165.9382
650.000000 69.539 -165.4113
660.000000 69.559 -164.7280
670.000000 69.573 -163.9923
680.000000 69.557 -163.1860
690.000000 69.589 -162.4424
700.000000 69.611 -161.7423
710.000000 69.629 -161.2878
720.000000 69.633 -160.4419
730.000000 69.667 -159.7459
740.000000 69.677 -159.0515
750.000000 69.720 -158.3211
762.000000 69.745 -157.4576
775.000000 69.787 -156.6870
788.000000 69.839 -155.8081
800.000000 69.858 -155.0763
812.000000 69.909 -154.1024
825.000000 69.994 -153.2427
838.000000 70.031 -152.3453
850.000000 70.081 -151.5824
862.000000 70.147 -150.9179
875.000000 70.203 -149.9596
885.000000 70.271 -149.4515
900.000000 70.355 -148.4753
912.000000 70.440 -147.7492
925.000000 70.495 -146.8759
938.000000 70.603 -146.1051
950.000000 70.691 -145.4443
962.000000 70.803 -144.6938
975.000000 70.873 -143.9364
988.000000 70.990 -143.5381
1000.000000 71.106 -142.7354
1015.000000 71.178 -142.4279
1030.000000 71.313 -141.5024
1044.000000 71.428 -141.1081
1060.000000 71.525 -140.4754
1075.000000 71.685 -140.0390
1090.000000 71.815 -139.3338
1106.000000 71.942 -138.9588
1120.000000 72.072 -138.6918
1138.000000 72.205 -138.0683
1150.000000 72.279 -137.8559
1172.000000 72.459 -137.3011
1180.000000 72.525 -137.0265
1206.000000 72.751 -136.3309
1220.000000 72.873 -136.2542
1241.000000 73.053 -135.8035
1250.000000 73.108 -135.7961
1265.000000 73.219 -135.6160
1280.000000 73.322 -135.4931
1315.000000 73.569 -134.8028
1320.000000 73.598 -134.7682
1340.000000 73.726 -134.6215
1360.000000 73.854 -134.3089
1380.000000 73.991 -134.2359
1400.000000 74.124 -133.8452
1430.000000 74.316 -133.7257
1450.000000 74.458 -133.3982
1475.000000 74.608 -133.2042
1500.000000 74.795 -133.0886
1525.000000 74.948 -132.7027
1550.000000 75.104 -132.5617
1575.000000 75.258 -132.4746
1600.000000 75.446 -132.1935
1625.000000 75.607 -132.0104
1650.000000 75.798 -131.9333
1675.000000 75.972 -131.8946
1700.000000 76.143 -131.8464
1725.000000 76.338 -131.6975
1750.000000 76.523 -131.8041
1775.000000 76.696 -131.6912
1800.000000 76.889 -131.8430
1825.000000 77.074 -132.0101
1850.000000 77.273 -132.1859
1875.000000 77.462 -132.3501
1900.000000 77.655 -132.5639
1925.000000 77.862 -132.8926
1950.000000 78.049 -133.2270
1975.000000 78.244 -133.7085
2000.000000 78.411 -133.9051
2030.000000 78.656 -134.8340
2060.000000 78.871 -135.5457
2090.000000 79.095 -136.4190
2120.000000 79.310 -137.3730
2140.000000 79.439 -137.9313
2180.000000 79.717 -139.3416
2200.000000 79.833 -140.0923
2240.000000 80.061 -141.8521
2270.000000 80.213 -142.9779
2300.000000 80.336 -144.3219
2330.000000 80.456 -145.4702
2360.000000 80.557 -146.5264
2400.000000 80.723 -147.8906
2430.000000 80.897 -148.9320
2470.000000 81.155 -150.7727
2500.000000 81.323 -152.5968
2540.000000 81.484 -155.2973
2580.000000 81.547 -158.1041
2620.000000 81.565 -160.9184
2650.000000 81.553 -162.9299
2690.000000 81.485 -165.3947
2720.000000 81.418 -167.0822
2760.000000 81.296 -169.2728
2800.000000 81.160 -171.3338
2850.000000 80.974 -173.5816
2900.000000 80.745 -175.6028
2950.000000 80.509 -177.3536
3000.000000 80.267 -178.7551
3040.000000 80.057 179.8890
3070.000000 79.920 179.1489
3110.000000 79.718 178.2751
3150.000000 79.504 177.6115
3200.000000 79.240 176.7718
3250.000000 78.940 176.3827
3300.000000 78.687 176.1405
3350.000000 78.454 176.1519
3400.000000 78.233 176.3532
3450.000000 78.033 176.5457
3500.000000 77.846 176.9730
3550.000000 77.674 177.2856
3600.000000 77.521 177.7711
3650.000000 77.421 178.2588
3700.000000 77.317 178.7746
3750.000000 77.215 179.2892
3820.000000 77.084 -179.8985
3870.000000 77.005 -179.5615
3950.000000 76.888 -178.5034
4000.000000 76.874 -177.9770
4060.000000 76.740 -177.0257
4120.000000 76.702 -176.0796
4180.000000 76.664 -175.0594
4250.000000 76.729 -173.8581
4310.000000 76.749 -173.0096
4370.000000 76.831 -172.2022
4440.000000 76.921 -171.1647
4500.000000 77.028 -170.5591
4550.000000 77.089 -169.9829
4620.000000 77.229 -169.3319
4680.000000 77.362 -168.9864
4750.000000 77.567 -168.7211
4820.000000 77.798 -168.5513
4870.000000 77.953 -168.4973
4940.000000 78.185 -168.7775
5000.000000 78.441 -169.2910
5080.000000 78.693 -170.5054
5150.000000 78.902 -171.8703
5220.000000 79.071 -173.5320
5300.000000 79.243 -175.5580
5380.000000 79.377 -177.9855
5450.000000 79.418 179.3855
5520.000000 79.379 176.9230
5600.000000 79.281 173.9825
5700.000000 79.005 170.6995
5800.000000 78.667 167.7862
5900.000000 78.225 165.3825
6000.000000 77.733 163.8002
6080.000000 77.297 162.9493
6150.000000 76.920 162.6293
6220.000000 76.573 162.7182
6300.000000 76.155 162.6153
6400.000000 75.699 163.6304
6500.000000 75.272 164.5518
6600.000000 74.864 166.0962
6700.000000 74.534 167.4687
6800.000000 74.248 169.4554
6900.000000 73.978 171.4881
7000.000000 73.747 173.4461
7100.000000 73.571 175.2642
7200.000000 73.493 177.7492
7300.000000 73.405 179.9557
7400.000000 73.372 -177.7800
7500.000000 73.399 -175.8025
7620.000000 73.421 -173.3260
7750.000000 73.578 -170.5031
7880.000000 73.768 -167.8114
8000.000000 74.105 -165.2995
8120.000000 74.475 -163.6804
8250.000000 75.031 -161.8160
8380.000000 75.754 -160.6734
8500.000000 76.534 -161.2126
8620.000000 77.460 -163.1758
8750.000000 78.445 -168.1689
8850.000000 79.108 -174.1982
9000.000000 79.531 173.3047
9120.000000 79.189 162.5738
9250.000000 78.229 153.0519
9380.000000 76.912 146.6248
9500.000000 75.645 143.0891
9620.000000 74.410 142.4137
9750.000000 73.244 142.9285
9880.000000 72.129 144.0371
10000.000000 71.185 146.6948
10150.000000 70.267 150.0345
10300.000000 69.369 154.7509
10440.000000 68.737 158.0909
10600.000000 68.201 163.7801
10750.000000 67.650 169.7344
10900.000000 67.129 175.3345
11060.000000 66.846 -178.8024
11200.000000 66.776 -172.0648
11380.000000 66.639 -164.2563
11500.000000 66.776 -157.3343
11720.000000 67.413 -144.1861
11800.000000 67.890 -138.6417
12060.000000 70.840 -128.8163
12200.000000 72.572 -129.1344
12410.000000 74.825 -135.3401
12500.000000 75.687 -138.9810
12650.000000 76.862 -147.0104
12800.000000 77.871 -156.9798
13150.000000 78.183 168.5433
13200.000000 77.857 163.8050
13400.000000 75.805 149.2453
13600.000000 73.379 142.8723
13800.000000 71.310 139.9018
14000.000000 69.546 142.0987
14300.000000 67.344 146.5230
14500.000000 65.993 151.1647
14750.000000 65.002 156.5925
15000.000000 64.397 166.9770
15250.000000 63.556 170.8555
15500.000000 63.298 177.5462
15750.000000 63.125 -177.1902
16000.000000 62.755 -172.4950
16250.000000 63.213 -165.7167
16500.000000 63.751 -161.2225
16750.000000 64.228 -160.2328
17000.000000 65.084 -160.4036
17250.000000 65.369 -164.4488
17500.000000 65.689 -172.0237
17750.000000 65.107 -177.9134
18000.000000 64.169 175.5748
18250.000000 62.929 172.9314
18500.000000 61.429 170.9659
18750.000000 59.892 172.1108
19000.000000 58.737 170.0981
19250.000000 57.465 169.8658
19500.000000 55.971 170.3066
19750.000000 53.964 169.3432
20000.000000 50.744 160.4857
20300.000000 47.789 177.1626
20600.000000 44.811 -178.0059
20900.000000 43.871 -162.5588
21200.000000 34.633 -121.5353
21400.000000 26.653 -172.2611
21800.000000 26.908 -60.9019
22000.000000 29.306 -136.5820
22400.000000 14.159 -153.4189
22700.000000 13.961 -117.5488
23000.000000 12.037 134.5703
23300.000000 2.525 -93.1914
23600.000000 26.586 -44.3398

