* Measurement data measured by REW V5.20.13
* Source: Microphone (USB Sound Device        ), MICROPHONE (Master Volume), R, volume: 0,250
* Format: 256k Log Swept Sine, 1 sweep at -12,0 dBFS with no timing reference
* Dated: 23:51:35 18-05-2024
* REW Settings:
*  C-weighting compensation: Off
*  Target level: 75.0 dB
* Note: ; 
* Measurement: BQEYZ Cloud deep L
* Smoothing: None
* Frequency Step: 1/48 octave
* Start Frequency: 1.000 Hz
*
* Freq(Hz) SPL(dB) Phase(degrees)
1.000000 84.815 121.0988
1.015000 84.640 120.2048
1.030000 84.459 119.3087
1.044000 84.284 118.4702
1.060000 84.076 117.5092
1.075000 83.873 116.6054
1.090000 83.662 115.6987
1.106000 83.431 114.7544
1.120000 83.237 114.0883
1.138000 82.999 113.4597
1.150000 82.847 113.1618
1.172000 82.576 112.8152
1.180000 82.479 112.7398
1.206000 82.162 112.6143
1.220000 81.988 112.5868
1.241000 81.718 112.5378
1.250000 81.597 112.4981
1.265000 81.387 112.3853
1.280000 81.164 112.1907
1.315000 80.584 111.2660
1.320000 80.492 111.0654
1.340000 80.103 110.0516
1.360000 79.670 108.6512
1.380000 79.190 106.8000
1.400000 78.655 104.4337
1.430000 77.740 99.7778
1.450000 77.046 95.8425
1.475000 76.060 89.8409
1.500000 74.807 82.3309
1.525000 73.301 73.4392
1.550000 71.597 63.3855
1.575000 69.746 52.3894
1.600000 67.801 40.6708
1.625000 65.817 28.4494
1.650000 63.844 15.9447
1.675000 61.937 3.3766
1.700000 60.148 -9.0353
1.725000 58.529 -21.0711
1.750000 57.135 -32.5113
1.775000 56.018 -43.1360
1.800000 55.230 -52.7256
1.825000 54.825 -61.0604
1.850000 54.850 -68.1692
1.875000 55.292 -74.5664
1.900000 56.095 -80.3314
1.925000 57.205 -85.5209
1.950000 58.567 -90.1917
1.975000 60.126 -94.4004
2.000000 61.827 -98.2039
2.030000 63.977 -102.3128
2.060000 66.159 -106.0178
2.090000 68.276 -109.4169
2.120000 70.233 -112.6080
2.140000 71.402 -114.6684
2.180000 73.290 -118.7587
2.200000 73.952 -120.8441
2.240000 74.930 -124.6031
2.270000 75.463 -126.9482
2.300000 75.850 -128.9473
2.330000 76.110 -130.6550
2.360000 76.265 -132.1257
2.400000 76.344 -133.8124
2.430000 76.336 -134.9424
2.470000 76.275 -136.3724
2.500000 76.220 -137.4582
2.540000 76.172 -139.0272
2.580000 76.186 -140.8301
2.620000 76.178 -142.7361
2.650000 76.140 -144.1802
2.690000 76.048 -146.0860
2.720000 75.948 -147.4742
2.760000 75.774 -149.2314
2.800000 75.553 -150.8369
2.850000 75.212 -152.5565
2.900000 74.799 -153.8688
2.950000 74.303 -154.7601
3.000000 73.643 -155.7918
3.040000 73.015 -156.6367
3.070000 72.507 -157.1737
3.110000 71.802 -157.6288
3.150000 71.096 -157.6348
3.200000 70.256 -156.7597
3.250000 69.520 -154.6038
3.300000 68.945 -150.8413
3.350000 68.465 -144.6726
3.400000 68.022 -136.2551
3.450000 67.643 -126.4249
3.500000 67.352 -116.0178
3.550000 67.175 -105.8695
3.600000 67.139 -96.8159
3.650000 67.270 -89.6929
3.700000 67.623 -84.8245
3.750000 68.247 -81.2871
3.820000 69.423 -78.0924
3.870000 70.368 -76.7743
3.950000 71.833 -75.7416
4.000000 72.592 -75.4344
4.060000 73.245 -75.2350
4.120000 73.756 -75.8817
4.180000 74.165 -77.2483
4.250000 74.534 -79.3922
4.310000 74.774 -81.3923
4.370000 74.961 -83.2575
4.440000 75.116 -85.1293
4.500000 75.172 -86.8570
4.550000 75.168 -88.3470
4.620000 75.096 -90.3981
4.680000 74.980 -92.0202
4.750000 74.796 -93.6194
4.820000 74.547 -94.9577
4.870000 74.315 -95.8784
4.940000 73.935 -96.9927
5.000000 73.577 -97.6695
5.080000 73.082 -97.9777
5.150000 72.655 -97.5115
5.220000 72.165 -96.3256
5.300000 71.560 -94.2713
5.380000 70.991 -91.6864
5.450000 70.592 -89.1653
5.520000 70.342 -86.4868
5.600000 70.210 -82.6445
5.700000 70.210 -77.2764
5.800000 70.335 -72.4764
5.900000 70.540 -69.4006
6.000000 70.909 -67.7167
6.080000 71.265 -67.1054
6.150000 71.562 -67.0176
6.220000 71.799 -67.2740
6.300000 71.996 -68.1017
6.400000 72.191 -70.0168
6.500000 72.315 -72.4954
6.600000 72.353 -75.0944
6.700000 72.291 -77.9161
6.800000 72.145 -81.0300
6.900000 71.934 -84.1493
7.000000 71.670 -87.0419
7.100000 71.326 -89.9059
7.200000 70.932 -92.6303
7.300000 70.532 -95.0046
7.400000 70.132 -96.8958
7.500000 69.701 -98.4080
7.620000 69.227 -99.7868
7.750000 68.870 -100.7454
7.880000 68.640 -100.9474
8.000000 68.551 -101.0237
8.120000 68.614 -101.5048
8.250000 68.867 -102.2239
8.380000 69.216 -103.3322
8.500000 69.560 -104.9424
8.620000 69.965 -107.0812
8.750000 70.405 -109.6700
8.850000 70.707 -111.7074
9.000000 71.132 -115.0388
9.120000 71.437 -117.6338
9.250000 71.718 -120.1502
9.380000 71.953 -122.4854
9.500000 72.146 -124.3391
9.620000 72.319 -125.8071
9.750000 72.481 -127.0297
9.880000 72.644 -127.9266
10.000000 72.805 -128.4375
10.150000 73.011 -128.6949
10.300000 73.238 -128.8061
10.440000 73.474 -128.7474
10.600000 73.752 -128.6237
10.750000 74.011 -128.5967
10.900000 74.269 -128.5986
11.060000 74.516 -128.6437
11.200000 74.711 -128.7308
11.380000 74.930 -128.8064
11.500000 75.053 -128.8166
11.720000 75.245 -128.7521
11.800000 75.308 -128.6870
12.060000 75.483 -128.3706
12.200000 75.568 -128.1851
12.410000 75.683 -127.9018
12.500000 75.726 -127.8128
12.650000 75.791 -127.7012
12.800000 75.842 -127.6300
13.150000 75.897 -127.6259
13.200000 75.899 -127.6285
13.400000 75.886 -127.6433
13.600000 75.860 -127.6480
13.800000 75.825 -127.6216
14.000000 75.795 -127.6495
14.300000 75.762 -127.8561
14.500000 75.748 -128.2194
14.750000 75.726 -128.9490
15.000000 75.692 -129.9774
15.250000 75.634 -131.1929
15.500000 75.565 -132.4628
15.750000 75.494 -133.7188
16.000000 75.446 -134.8967
16.250000 75.434 -136.0606
16.500000 75.462 -137.2524
16.750000 75.528 -138.5466
17.000000 75.614 -139.9335
17.250000 75.711 -141.3650
17.500000 75.809 -142.7679
17.750000 75.907 -144.0325
18.000000 76.007 -145.1318
18.250000 76.116 -146.0392
18.500000 76.234 -146.7965
18.750000 76.359 -147.4381
19.000000 76.485 -147.9953
19.250000 76.605 -148.4826
19.500000 76.714 -148.8893
19.750000 76.812 -149.2100
20.000000 76.898 -149.4431
20.299999 76.989 -149.6439
20.600000 77.067 -149.8017
20.900000 77.127 -149.9587
21.200001 77.166 -150.1300
21.400000 77.178 -150.2411
21.799999 77.180 -150.4467
22.000000 77.174 -150.5504
22.400000 77.157 -150.8174
22.700001 77.142 -151.1377
23.000000 77.119 -151.5982
23.299999 77.085 -152.1710
23.600000 77.042 -152.8049
24.000000 76.983 -153.6749
24.299999 76.950 -154.3376
24.700001 76.934 -155.2906
25.000000 76.941 -156.0992
25.400000 76.961 -157.2940
25.799999 76.984 -158.5121
26.200001 77.009 -159.6173
26.500000 77.035 -160.3312
26.900000 77.084 -161.1391
27.200001 77.131 -161.6639
27.600000 77.200 -162.2837
28.000000 77.269 -162.8247
28.500000 77.345 -163.4062
29.000000 77.401 -163.9091
29.500000 77.431 -164.3349
30.000000 77.438 -164.6814
30.400000 77.435 -164.9428
30.700001 77.429 -165.1653
31.100000 77.413 -165.5245
31.500000 77.386 -165.9424
32.000000 77.342 -166.4964
32.500000 77.303 -167.0784
33.000000 77.277 -167.7486
33.500000 77.258 -168.5230
34.000000 77.241 -169.3271
34.500000 77.232 -170.0878
35.000000 77.235 -170.7985
35.500000 77.245 -171.4652
36.000000 77.259 -172.0677
36.500000 77.274 -172.6002
37.000000 77.288 -173.0883
37.500000 77.294 -173.5400
38.200001 77.287 -174.0766
38.700001 77.278 -174.4184
39.500000 77.256 -175.0256
40.000000 77.231 -175.4295
40.599998 77.200 -175.9089
41.200001 77.173 -176.4277
41.799999 77.146 -176.9905
42.500000 77.115 -177.6185
43.099998 77.097 -178.1325
43.700001 77.083 -178.6671
44.400002 77.060 -179.2617
45.000000 77.038 -179.6855
45.500000 77.024 179.9932
46.200001 77.008 179.5005
46.799999 76.984 179.0299
47.500000 76.941 178.5519
48.200001 76.911 178.1638
48.700001 76.902 177.8145
49.400002 76.875 177.1712
50.000000 76.825 176.7082
50.799999 76.776 176.3996
51.500000 76.772 176.0884
52.200001 76.757 175.6086
53.000000 76.710 175.1590
53.799999 76.673 174.8475
54.500000 76.649 174.4924
55.200001 76.612 174.0606
56.000000 76.557 173.6199
57.000000 76.504 173.1432
58.000000 76.466 172.6078
59.000000 76.426 172.0755
60.000000 76.381 171.6324
60.799999 76.346 171.3188
61.500000 76.304 171.0430
62.200001 76.254 170.8848
63.000000 76.224 170.7564
64.000000 76.192 170.2308
65.000000 76.113 169.7418
66.000000 76.064 169.3651
67.000000 76.006 168.8765
68.000000 75.954 168.6478
69.000000 75.929 168.2852
70.000000 75.869 167.9263
71.000000 75.814 167.6676
72.000000 75.740 167.3642
73.000000 75.676 167.2414
74.000000 75.634 166.9403
75.000000 75.567 166.6036
76.199997 75.484 166.3602
77.500000 75.402 166.2792
78.800003 75.339 166.3089
80.000000 75.309 166.3635
81.199997 75.300 166.1744
82.500000 75.251 165.8201
83.800003 75.200 165.7034
85.000000 75.181 165.4831
86.199997 75.130 165.1501
87.500000 75.084 164.9390
88.500000 75.046 164.6583
90.000000 74.990 164.3826
91.199997 74.942 164.0957
92.500000 74.887 163.9402
93.800003 74.834 163.7722
95.000000 74.782 163.6482
96.199997 74.731 163.4489
97.500000 74.666 163.3239
98.800003 74.636 163.0717
100.000000 74.561 162.8132
101.500000 74.514 162.7460
103.000000 74.446 162.4933
104.400002 74.381 162.3410
106.000000 74.324 162.2733
107.500000 74.256 162.0306
109.000000 74.193 161.9579
110.599998 74.111 161.9147
112.000000 74.065 161.8170
113.800003 73.963 161.6860
115.000000 73.921 161.7714
117.199997 73.813 161.5422
118.000000 73.778 161.6573
120.599998 73.661 161.6281
122.000000 73.603 161.6395
124.099998 73.496 161.7813
125.000000 73.461 161.9331
126.500000 73.415 162.0788
128.000000 73.360 162.1783
131.500000 73.261 162.6396
132.000000 73.248 162.7462
134.000000 73.218 162.9957
136.000000 73.212 163.1464
138.000000 73.185 163.2406
140.000000 73.152 163.1710
143.000000 73.075 162.9416
145.000000 73.023 162.9319
147.500000 72.961 163.0792
150.000000 72.901 163.3719
152.500000 72.824 163.5382
155.000000 72.802 163.7078
157.500000 72.769 163.6932
160.000000 72.751 163.7502
162.500000 72.699 163.7759
165.000000 72.647 163.7425
167.500000 72.593 163.7090
170.000000 72.552 163.7377
172.500000 72.481 163.6453
175.000000 72.417 163.7293
177.500000 72.386 163.9103
180.000000 72.352 164.0544
182.500000 72.286 164.2269
185.000000 72.247 164.2839
187.500000 72.191 164.3268
190.000000 72.163 164.4836
192.500000 72.104 164.5708
195.000000 72.063 164.6907
197.500000 72.010 164.6690
200.000000 71.980 164.7625
203.000000 71.910 164.8930
206.000000 71.862 165.0610
209.000000 71.829 165.2125
212.000000 71.755 165.4285
214.000000 71.726 165.4504
218.000000 71.640 165.6301
220.000000 71.614 165.9381
224.000000 71.538 166.0586
227.000000 71.499 166.0916
230.000000 71.462 166.3312
233.000000 71.423 166.6655
236.000000 71.362 166.7357
240.000000 71.328 167.1271
243.000000 71.289 167.3303
247.000000 71.214 167.6637
250.000000 71.185 167.7302
254.000000 71.135 168.0026
258.000000 71.066 168.3688
262.000000 71.043 168.5558
265.000000 71.015 168.7905
269.000000 70.952 169.1813
272.000000 70.927 169.5605
276.000000 70.893 169.7745
280.000000 70.850 169.9853
285.000000 70.810 170.5385
290.000000 70.731 170.9800
295.000000 70.673 171.1380
300.000000 70.671 171.4630
304.000000 70.638 171.8948
307.000000 70.604 171.9239
311.000000 70.552 172.4115
315.000000 70.543 172.6832
320.000000 70.483 173.0591
325.000000 70.443 173.4138
330.000000 70.427 173.9062
335.000000 70.389 174.2439
340.000000 70.337 174.6374
345.000000 70.323 174.9273
350.000000 70.305 175.3342
355.000000 70.281 175.7909
360.000000 70.245 176.0741
365.000000 70.193 176.5550
370.000000 70.175 176.8937
375.000000 70.144 177.1873
382.000000 70.106 177.5230
387.000000 70.077 178.0685
395.000000 70.060 178.5306
400.000000 70.030 179.3014
406.000000 70.016 179.4645
412.000000 69.995 -179.8613
418.000000 69.981 -179.6175
425.000000 69.939 -179.2415
431.000000 69.933 -178.6505
437.000000 69.921 -178.4067
444.000000 69.910 -177.9179
450.000000 69.867 -177.4224
455.000000 69.874 -177.0534
462.000000 69.846 -176.5964
468.000000 69.813 -176.0545
475.000000 69.795 -175.6696
482.000000 69.796 -175.1573
487.000000 69.802 -174.8546
494.000000 69.793 -174.4148
500.000000 69.765 -173.6245
508.000000 69.773 -173.4073
515.000000 69.736 -172.8107
522.000000 69.726 -172.5209
530.000000 69.740 -171.9032
538.000000 69.694 -171.4092
545.000000 69.695 -170.9250
552.000000 69.699 -170.3361
560.000000 69.693 -169.7885
570.000000 69.685 -169.1098
580.000000 69.691 -168.5803
590.000000 69.689 -167.8293
600.000000 69.687 -167.0704
608.000000 69.686 -166.7992
615.000000 69.687 -166.0625
622.000000 69.671 -165.5245
630.000000 69.695 -165.1041
640.000000 69.680 -164.2486
650.000000 69.713 -163.5193
660.000000 69.685 -162.8763
670.000000 69.730 -162.3455
680.000000 69.729 -161.5750
690.000000 69.735 -160.9022
700.000000 69.793 -160.2427
710.000000 69.756 -159.6083
720.000000 69.783 -158.6968
730.000000 69.830 -158.3925
740.000000 69.851 -157.5564
750.000000 69.886 -156.9906
762.000000 69.905 -155.7799
775.000000 69.943 -155.0016
788.000000 69.989 -154.2405
800.000000 70.053 -153.7558
812.000000 70.106 -152.6954
825.000000 70.156 -151.6504
838.000000 70.210 -150.7757
850.000000 70.262 -150.2608
862.000000 70.337 -149.2138
875.000000 70.387 -148.4656
885.000000 70.466 -147.7518
900.000000 70.532 -146.8123
912.000000 70.633 -146.3229
925.000000 70.705 -145.4872
938.000000 70.794 -144.6208
950.000000 70.912 -143.8909
962.000000 70.952 -143.1880
975.000000 71.060 -142.5479
988.000000 71.184 -142.0157
1000.000000 71.214 -140.8962
1015.000000 71.403 -140.8843
1030.000000 71.526 -140.1245
1044.000000 71.643 -139.5373
1060.000000 71.806 -139.1252
1075.000000 71.907 -138.4928
1090.000000 72.049 -138.1199
1106.000000 72.180 -137.6310
1120.000000 72.313 -137.3231
1138.000000 72.456 -136.9847
1150.000000 72.558 -136.7130
1172.000000 72.739 -136.3304
1180.000000 72.794 -136.1364
1206.000000 72.968 -136.0044
1220.000000 73.018 -135.9385
1241.000000 73.117 -135.3516
1250.000000 73.166 -135.0903
1265.000000 73.280 -134.6140
1280.000000 73.381 -134.2619
1315.000000 73.654 -133.4602
1320.000000 73.664 -133.5346
1340.000000 73.825 -133.1196
1360.000000 73.953 -132.9209
1380.000000 74.135 -132.5619
1400.000000 74.272 -132.3729
1430.000000 74.482 -132.1235
1450.000000 74.602 -131.7987
1475.000000 74.762 -131.5733
1500.000000 74.937 -131.2727
1525.000000 75.122 -131.0289
1550.000000 75.276 -130.8396
1575.000000 75.468 -130.5139
1600.000000 75.621 -130.3532
1625.000000 75.805 -130.1814
1650.000000 75.980 -130.0758
1675.000000 76.172 -129.8387
1700.000000 76.375 -129.9009
1725.000000 76.553 -129.8365
1750.000000 76.730 -129.8047
1775.000000 76.908 -129.7641
1800.000000 77.121 -129.9074
1825.000000 77.331 -129.9688
1850.000000 77.529 -130.1687
1875.000000 77.701 -130.2975
1900.000000 77.925 -130.5284
1925.000000 78.111 -130.9092
1950.000000 78.321 -131.2365
1975.000000 78.524 -131.6219
2000.000000 78.727 -132.4818
2030.000000 78.972 -132.9032
2060.000000 79.204 -133.5380
2090.000000 79.434 -134.4318
2120.000000 79.657 -135.4195
2140.000000 79.797 -136.1476
2180.000000 80.070 -137.6768
2200.000000 80.198 -138.4944
2240.000000 80.416 -140.1893
2270.000000 80.577 -141.4706
2300.000000 80.709 -142.6549
2330.000000 80.834 -143.9379
2360.000000 80.952 -144.9831
2400.000000 81.170 -146.4040
2430.000000 81.364 -147.7237
2470.000000 81.624 -150.0316
2500.000000 81.784 -152.0022
2540.000000 81.905 -155.0166
2580.000000 81.941 -158.0651
2620.000000 81.921 -160.8948
2650.000000 81.864 -162.8801
2690.000000 81.793 -165.4655
2720.000000 81.697 -167.1880
2760.000000 81.547 -169.4142
2800.000000 81.402 -171.3877
2850.000000 81.169 -173.6564
2900.000000 80.914 -175.6537
2950.000000 80.628 -177.2995
3000.000000 80.415 -178.7390
3040.000000 80.165 -179.7610
3070.000000 79.984 179.5401
3110.000000 79.765 178.7752
3150.000000 79.534 178.1873
3200.000000 79.241 177.5704
3250.000000 78.973 177.3139
3300.000000 78.707 177.2742
3350.000000 78.455 177.2249
3400.000000 78.201 177.5326
3450.000000 77.962 177.8998
3500.000000 77.762 178.5568
3550.000000 77.593 179.1906
3600.000000 77.462 -179.9895
3650.000000 77.355 -179.3057
3700.000000 77.238 -178.5999
3750.000000 77.139 -177.8035
3820.000000 76.997 -176.8376
3870.000000 76.927 -176.1703
3950.000000 76.856 -174.8538
4000.000000 76.790 -173.8649
4060.000000 76.753 -172.6496
4120.000000 76.717 -171.5420
4180.000000 76.740 -170.2248
4250.000000 76.799 -168.7356
4310.000000 76.879 -167.7737
4370.000000 76.998 -166.7893
4440.000000 77.162 -165.8978
4500.000000 77.265 -164.9747
4550.000000 77.426 -164.5467
4620.000000 77.624 -163.7433
4680.000000 77.813 -163.3531
4750.000000 78.045 -163.0482
4820.000000 78.314 -162.8959
4870.000000 78.532 -163.0333
4940.000000 78.823 -163.4697
5000.000000 79.034 -163.9428
5080.000000 79.373 -165.4815
5150.000000 79.639 -167.0407
5220.000000 79.879 -169.0135
5300.000000 80.087 -171.4605
5380.000000 80.224 -174.3458
5450.000000 80.294 -177.2347
5520.000000 80.257 179.9152
5600.000000 80.111 176.4869
5700.000000 79.831 172.9061
5800.000000 79.431 169.5492
5900.000000 78.928 167.1976
6000.000000 78.378 165.5803
6080.000000 77.930 164.5393
6150.000000 77.590 164.0507
6220.000000 77.197 164.1315
6300.000000 76.792 164.3082
6400.000000 76.325 165.0662
6500.000000 75.872 166.3309
6600.000000 75.467 167.4553
6700.000000 75.089 169.3192
6800.000000 74.762 170.9736
6900.000000 74.507 172.8279
7000.000000 74.290 175.4014
7100.000000 74.057 177.5352
7200.000000 73.879 -179.9247
7300.000000 73.861 -177.4989
7400.000000 73.876 -175.2673
7500.000000 73.880 -172.5513
7620.000000 73.983 -169.9315
7750.000000 74.147 -167.1716
7880.000000 74.432 -164.2807
8000.000000 74.781 -161.8318
8120.000000 75.152 -160.2647
8250.000000 75.806 -158.5594
8380.000000 76.563 -157.9716
8500.000000 77.351 -158.5754
8620.000000 78.226 -161.2270
8750.000000 79.175 -166.4677
8850.000000 79.764 -172.2540
9000.000000 80.199 175.7967
9120.000000 79.903 165.4175
9250.000000 78.965 156.2290
9380.000000 77.751 149.7673
9500.000000 76.529 146.4687
9620.000000 75.377 145.1344
9750.000000 74.141 145.4393
9880.000000 73.149 146.7407
10000.000000 72.321 148.4594
10150.000000 71.349 151.9242
10300.000000 70.628 156.1438
10440.000000 69.948 160.3939
10600.000000 69.394 165.0765
10750.000000 68.906 170.2307
10900.000000 68.528 174.9741
11060.000000 68.221 -179.1888
11200.000000 68.177 -173.4153
11380.000000 68.093 -165.2483
11500.000000 68.150 -159.1943
11720.000000 69.048 -149.1351
11800.000000 69.560 -145.2188
12060.000000 72.085 -137.1891
12200.000000 73.720 -138.2984
12410.000000 75.917 -145.2062
12500.000000 76.731 -149.9458
12650.000000 77.851 -160.6148
12800.000000 78.424 -175.0975
13150.000000 76.300 153.4497
13200.000000 75.779 150.8384
13400.000000 73.432 143.5768
13600.000000 71.502 142.1503
13800.000000 69.657 143.5771
14000.000000 68.219 145.8356
14300.000000 66.498 151.8184
14500.000000 65.811 156.9524
14750.000000 64.548 163.7834
15000.000000 64.659 169.0334
15250.000000 64.042 175.8103
15500.000000 63.813 179.8398
15750.000000 63.780 -174.5040
16000.000000 63.551 -170.5764
16250.000000 64.250 -169.3961
16500.000000 64.588 -168.4892
16750.000000 64.883 -169.8273
17000.000000 65.028 -173.1784
17250.000000 64.513 -176.7899
17500.000000 63.502 179.3281
17750.000000 62.693 -178.6058
18000.000000 61.910 178.5251
18250.000000 61.098 177.0973
18500.000000 60.190 173.9668
18750.000000 58.525 174.2554
19000.000000 57.317 172.5875
19250.000000 55.433 172.4205
19500.000000 54.498 173.6055
19750.000000 52.171 176.2524
20000.000000 50.034 178.0414
20300.000000 46.883 -178.4621
20600.000000 44.017 -167.0271
20900.000000 43.206 -146.3708
21200.000000 34.620 -107.1368
21400.000000 24.350 -146.8201
21800.000000 23.459 -83.4557
22000.000000 28.633 -113.2390
22400.000000 19.919 -147.1260
22700.000000 16.787 26.4600
23000.000000 15.773 -9.6348
23300.000000 17.923 95.2305
23600.000000 24.567 129.4297

