* Measurement data measured by REW V5.20.13
* Source: Microphone (USB Sound Device        ), MICROPHONE (Master Volume), L, volume: 0,250
* Format: 256k Log Swept Sine, 1 sweep at -12,0 dBFS with no timing reference
* Dated: 17:25:07 13-01-2024
* REW Settings:
*  C-weighting compensation: Off
*  Target level: 75.0 dB
* Note: ; 
* Measurement: BQEYZ Wind L
* Smoothing: None
* Frequency Step: 1/48 octave
* Start Frequency: 1.000 Hz
*
* Freq(Hz) SPL(dB) Phase(degrees)
1.000000 76.478 120.2001
1.015000 76.287 119.2296
1.030000 76.088 118.2454
1.044000 75.894 117.3133
1.060000 75.664 116.2310
1.075000 75.438 115.1987
1.090000 75.202 114.1480
1.106000 74.939 113.0293
1.120000 74.695 112.1768
1.138000 74.365 111.2625
1.150000 74.134 110.7486
1.172000 73.693 109.9607
1.180000 73.527 109.7122
1.206000 72.969 108.9881
1.220000 72.658 108.6204
1.241000 72.181 108.0471
1.250000 71.973 107.7798
1.265000 71.622 107.2871
1.280000 71.268 106.7153
1.315000 70.431 104.9440
1.320000 70.311 104.6285
1.340000 69.831 103.1759
1.360000 69.353 101.3775
1.380000 68.880 99.1787
1.400000 68.413 96.5247
1.430000 67.731 91.5705
1.450000 67.292 87.5391
1.475000 66.756 81.5445
1.500000 66.176 74.1449
1.525000 65.549 65.4508
1.550000 64.888 55.6757
1.575000 64.209 45.0331
1.600000 63.528 33.7367
1.625000 62.857 22.0001
1.650000 62.213 10.0366
1.675000 61.609 -1.9400
1.700000 61.061 -13.7164
1.725000 60.583 -25.0788
1.750000 60.191 -35.8138
1.775000 59.897 -45.7078
1.800000 59.719 -54.5472
1.825000 59.669 -62.1185
1.850000 59.771 -68.4207
1.875000 60.040 -73.8959
1.900000 60.455 -78.6400
1.925000 60.992 -82.7298
1.950000 61.630 -86.2424
1.975000 62.346 -89.2548
2.000000 63.118 -91.8438
2.030000 64.087 -94.5003
2.060000 65.066 -96.7911
2.090000 66.017 -98.8492
2.120000 66.900 -100.8076
2.140000 67.432 -102.1235
2.180000 68.309 -104.9573
2.200000 68.631 -106.5514
2.240000 69.137 -109.6020
2.270000 69.437 -111.6184
2.300000 69.678 -113.4293
2.330000 69.865 -115.0590
2.360000 70.007 -116.5321
2.400000 70.136 -118.2949
2.430000 70.198 -119.4977
2.470000 70.248 -120.9889
2.500000 70.269 -122.0545
2.540000 70.289 -123.4517
2.580000 70.310 -124.8681
2.620000 70.290 -126.2720
2.650000 70.245 -127.2895
2.690000 70.150 -128.5695
2.720000 70.056 -129.4520
2.760000 69.906 -130.4963
2.800000 69.733 -131.3558
2.850000 69.494 -132.1145
2.900000 69.241 -132.4561
2.950000 68.979 -132.3186
3.000000 68.644 -131.7474
3.040000 68.333 -131.0090
3.070000 68.085 -130.3014
3.110000 67.749 -129.1657
3.150000 67.423 -127.8249
3.200000 67.056 -125.8846
3.250000 66.765 -123.6797
3.300000 66.584 -121.2388
3.350000 66.501 -118.2339
3.400000 66.488 -114.5962
3.450000 66.537 -110.5847
3.500000 66.639 -106.4580
3.550000 66.786 -102.4752
3.600000 66.971 -98.8951
3.650000 67.184 -95.9765
3.700000 67.441 -93.8091
3.750000 67.777 -92.0904
3.820000 68.335 -90.3198
3.870000 68.763 -89.4418
3.950000 69.428 -88.5703
4.000000 69.792 -88.2817
4.060000 70.149 -88.1735
4.120000 70.468 -88.5472
4.180000 70.755 -89.3199
4.250000 71.048 -90.5485
4.310000 71.260 -91.7299
4.370000 71.433 -92.8893
4.440000 71.583 -94.1592
4.500000 71.665 -95.3841
4.550000 71.704 -96.4690
4.620000 71.719 -98.0060
4.680000 71.701 -99.2662
4.750000 71.653 -100.5735
4.820000 71.568 -101.7141
4.870000 71.477 -102.4999
4.940000 71.317 -103.5140
5.000000 71.161 -104.2598
5.080000 70.944 -105.0043
5.150000 70.759 -105.3555
5.220000 70.551 -105.4206
5.300000 70.293 -105.2075
5.380000 70.044 -104.7573
5.450000 69.858 -104.2259
5.520000 69.720 -103.5929
5.600000 69.603 -102.5478
5.700000 69.506 -100.9652
5.800000 69.470 -99.4808
5.900000 69.502 -98.4689
6.000000 69.623 -97.7256
6.080000 69.761 -97.3288
6.150000 69.889 -97.1797
6.220000 70.007 -97.2600
6.300000 70.135 -97.6826
6.400000 70.307 -98.6434
6.500000 70.466 -99.9253
6.600000 70.588 -101.3588
6.700000 70.668 -103.0227
6.800000 70.717 -104.9149
6.900000 70.738 -106.8447
7.000000 70.731 -108.6553
7.100000 70.686 -110.4678
7.200000 70.618 -112.2261
7.300000 70.543 -113.8132
7.400000 70.467 -115.1588
7.500000 70.377 -116.3220
7.620000 70.280 -117.4977
7.750000 70.223 -118.4974
7.880000 70.203 -119.1469
8.000000 70.224 -119.6217
8.120000 70.295 -120.1377
8.250000 70.432 -120.6416
8.380000 70.603 -121.2208
8.500000 70.776 -121.9497
8.620000 70.976 -122.8244
8.750000 71.194 -123.8797
8.850000 71.348 -124.7537
9.000000 71.569 -126.2130
9.120000 71.730 -127.3791
9.250000 71.879 -128.5554
9.380000 72.005 -129.6916
9.500000 72.110 -130.6219
9.620000 72.204 -131.3877
9.750000 72.293 -132.0686
9.880000 72.383 -132.6061
10.000000 72.470 -132.9570
10.150000 72.582 -133.2255
10.300000 72.706 -133.4257
10.440000 72.834 -133.5347
10.600000 72.986 -133.6369
10.750000 73.130 -133.7808
10.900000 73.276 -133.9447
11.060000 73.418 -134.1551
11.200000 73.533 -134.3749
11.380000 73.664 -134.6506
11.500000 73.739 -134.8229
11.720000 73.856 -135.1018
11.800000 73.894 -135.1800
12.060000 74.000 -135.3743
12.200000 74.052 -135.4570
12.410000 74.122 -135.5635
12.500000 74.149 -135.6219
12.650000 74.192 -135.7304
12.800000 74.230 -135.8592
13.150000 74.290 -136.2613
13.200000 74.296 -136.3241
13.400000 74.309 -136.5889
13.600000 74.316 -136.8600
13.800000 74.316 -137.1266
14.000000 74.318 -137.4158
14.300000 74.325 -137.9147
14.500000 74.335 -138.3374
14.750000 74.346 -138.9807
15.000000 74.354 -139.7499
15.250000 74.354 -140.5974
15.500000 74.349 -141.4579
15.750000 74.343 -142.2971
16.000000 74.346 -143.0794
16.250000 74.366 -143.8330
16.500000 74.404 -144.5794
16.750000 74.459 -145.3579
17.000000 74.523 -146.1740
17.250000 74.592 -147.0087
17.500000 74.658 -147.8320
17.750000 74.722 -148.5895
18.000000 74.786 -149.2665
18.250000 74.853 -149.8481
18.500000 74.924 -150.3554
18.750000 74.999 -150.8091
19.000000 75.076 -151.2282
19.250000 75.149 -151.6261
19.500000 75.217 -151.9967
19.750000 75.277 -152.3358
20.000000 75.329 -152.6344
20.299999 75.382 -152.9458
20.600000 75.428 -153.2191
20.900000 75.464 -153.4729
21.200001 75.492 -153.7220
21.400000 75.505 -153.8875
21.799999 75.522 -154.2202
22.000000 75.526 -154.3926
22.400000 75.531 -154.7688
22.700001 75.532 -155.0981
23.000000 75.530 -155.4769
23.299999 75.524 -155.8957
23.600000 75.517 -156.3401
24.000000 75.509 -156.9568
24.299999 75.508 -157.4388
24.700001 75.517 -158.1200
25.000000 75.528 -158.6595
25.400000 75.546 -159.3926
25.799999 75.569 -160.0976
26.200001 75.600 -160.7520
26.500000 75.628 -161.2166
26.900000 75.670 -161.8128
27.200001 75.701 -162.2364
27.600000 75.738 -162.7428
28.000000 75.773 -163.1591
28.500000 75.819 -163.5878
29.000000 75.865 -164.0163
29.500000 75.895 -164.4808
30.000000 75.903 -164.9183
30.400000 75.900 -165.2204
30.700001 75.897 -165.4343
31.100000 75.893 -165.7394
31.500000 75.886 -166.0825
32.000000 75.871 -166.5390
32.500000 75.858 -166.9954
33.000000 75.856 -167.4867
33.500000 75.859 -168.0638
34.000000 75.859 -168.6984
34.500000 75.853 -169.2969
35.000000 75.850 -169.8096
35.500000 75.858 -170.2672
36.000000 75.874 -170.7201
36.500000 75.889 -171.1716
37.000000 75.899 -171.5922
37.500000 75.907 -171.9734
38.200001 75.916 -172.4931
38.700001 75.914 -172.8791
39.500000 75.893 -173.4687
40.000000 75.876 -173.8101
40.599998 75.852 -174.2363
41.200001 75.815 -174.6685
41.799999 75.768 -174.9933
42.500000 75.725 -175.1595
43.099998 75.717 -175.2320
43.700001 75.728 -175.3530
44.400002 75.751 -175.5357
45.000000 75.783 -175.7006
45.500000 75.822 -175.9173
46.200001 75.872 -176.4662
46.799999 75.874 -177.0409
47.500000 75.846 -177.4168
48.200001 75.869 -177.5711
48.700001 75.916 -177.9316
49.400002 75.932 -178.8812
50.000000 75.869 -179.5379
50.799999 75.800 -179.7531
51.500000 75.808 -179.9878
52.200001 75.800 179.4907
53.000000 75.758 179.0729
53.799999 75.743 178.7758
54.500000 75.735 178.4095
55.200001 75.725 178.0381
56.000000 75.712 177.5250
57.000000 75.652 177.0338
58.000000 75.654 176.9930
59.000000 75.703 176.3500
60.000000 75.652 175.6340
60.799999 75.607 175.4019
61.500000 75.582 175.2066
62.200001 75.560 174.9871
63.000000 75.538 174.6671
64.000000 75.490 174.1646
65.000000 75.444 173.8774
66.000000 75.438 173.4435
67.000000 75.397 172.9042
68.000000 75.362 172.6566
69.000000 75.349 172.3116
70.000000 75.310 171.9869
71.000000 75.282 171.7470
72.000000 75.248 171.4046
73.000000 75.211 171.1225
74.000000 75.181 170.7852
75.000000 75.146 170.4834
76.199997 75.119 170.1031
77.500000 75.072 169.7447
78.800003 75.040 169.4526
80.000000 75.001 169.1844
81.199997 74.970 168.8486
82.500000 74.913 168.5243
83.800003 74.874 168.2027
85.000000 74.842 168.0201
86.199997 74.824 167.4759
87.500000 74.735 167.3346
88.500000 74.738 167.1807
90.000000 74.663 166.8519
91.199997 74.647 166.6956
92.500000 74.597 166.4549
93.800003 74.566 166.2368
95.000000 74.523 166.0016
96.199997 74.488 165.7452
97.500000 74.432 165.4915
98.800003 74.400 165.2735
100.000000 74.352 165.0311
101.500000 74.322 164.8585
103.000000 74.291 164.5457
104.400002 74.238 164.1884
106.000000 74.189 164.0529
107.500000 74.139 163.7513
109.000000 74.079 163.5805
110.599998 74.034 163.4277
112.000000 73.985 163.1759
113.800003 73.929 162.9948
115.000000 73.884 162.8793
117.199997 73.815 162.6766
118.000000 73.787 162.6180
120.599998 73.699 162.3344
122.000000 73.639 162.1912
124.099998 73.581 161.9654
125.000000 73.548 161.9225
126.500000 73.505 161.8470
128.000000 73.458 161.7383
131.500000 73.354 161.5261
132.000000 73.345 161.4354
134.000000 73.267 161.4705
136.000000 73.212 161.2508
138.000000 73.156 161.1111
140.000000 73.108 161.0302
143.000000 73.015 160.8018
145.000000 72.946 160.9479
147.500000 72.889 160.8146
150.000000 72.817 160.5474
152.500000 72.746 160.6077
155.000000 72.669 160.6354
157.500000 72.599 160.5726
160.000000 72.535 160.5630
162.500000 72.476 160.4950
165.000000 72.409 160.4272
167.500000 72.357 160.5716
170.000000 72.282 160.5032
172.500000 72.227 160.4704
175.000000 72.172 160.5040
177.500000 72.104 160.5082
180.000000 72.052 160.5596
182.500000 71.994 160.5358
185.000000 71.918 160.7250
187.500000 71.875 160.6984
190.000000 71.821 160.7485
192.500000 71.741 160.8210
195.000000 71.702 160.8303
197.500000 71.657 160.9140
200.000000 71.600 160.9752
203.000000 71.519 161.1065
206.000000 71.471 161.1392
209.000000 71.418 161.2188
212.000000 71.352 161.3851
214.000000 71.326 161.4383
218.000000 71.250 161.6281
220.000000 71.199 161.7217
224.000000 71.137 161.7903
227.000000 71.060 161.9383
230.000000 71.024 162.1066
233.000000 70.972 162.2285
236.000000 70.929 162.4094
240.000000 70.856 162.6152
243.000000 70.799 162.7140
247.000000 70.750 162.7729
250.000000 70.719 163.0296
254.000000 70.650 163.2537
258.000000 70.571 163.3698
262.000000 70.512 163.5801
265.000000 70.467 163.6455
269.000000 70.386 163.8350
272.000000 70.364 163.9647
276.000000 70.303 164.3326
280.000000 70.230 164.5377
285.000000 70.153 164.7850
290.000000 70.079 165.0028
295.000000 70.019 165.5786
300.000000 69.937 165.8472
304.000000 69.897 165.9557
307.000000 69.860 166.0659
311.000000 69.805 166.3143
315.000000 69.780 166.8646
320.000000 69.693 167.0200
325.000000 69.641 167.4855
330.000000 69.573 167.7785
335.000000 69.553 168.1069
340.000000 69.503 168.5536
345.000000 69.451 168.8102
350.000000 69.407 169.2484
355.000000 69.355 169.6548
360.000000 69.306 169.8666
365.000000 69.255 170.0961
370.000000 69.223 170.6118
375.000000 69.158 170.9154
382.000000 69.142 171.7509
387.000000 69.082 172.0776
395.000000 69.010 172.6019
400.000000 69.021 172.9504
406.000000 68.964 173.4260
412.000000 68.931 173.6268
418.000000 68.915 174.2549
425.000000 68.841 174.5942
431.000000 68.805 175.1721
437.000000 68.783 175.6177
444.000000 68.765 175.9407
450.000000 68.726 176.3585
455.000000 68.683 176.6646
462.000000 68.642 177.1130
468.000000 68.622 177.3956
475.000000 68.599 177.9475
482.000000 68.549 178.5326
487.000000 68.507 178.7399
494.000000 68.466 179.3632
500.000000 68.436 179.6879
508.000000 68.415 -179.6785
515.000000 68.410 -179.3500
522.000000 68.352 -178.5900
530.000000 68.332 -178.0878
538.000000 68.282 -177.6494
545.000000 68.290 -177.0060
552.000000 68.214 -176.4978
560.000000 68.254 -176.1110
570.000000 68.179 -175.1247
580.000000 68.174 -174.5897
590.000000 68.105 -173.6777
600.000000 68.095 -173.2662
608.000000 68.069 -172.4370
615.000000 68.061 -172.0870
622.000000 68.042 -171.1784
630.000000 68.049 -170.9910
640.000000 68.010 -170.0191
650.000000 68.031 -169.2929
660.000000 67.950 -168.4025
670.000000 67.970 -167.5759
680.000000 67.904 -166.5937
690.000000 67.937 -165.7519
700.000000 67.921 -164.5700
710.000000 67.973 -163.6767
720.000000 67.992 -162.8559
730.000000 68.072 -162.0238
740.000000 68.124 -160.8826
750.000000 68.201 -160.7187
762.000000 68.270 -159.7512
775.000000 68.324 -159.3232
788.000000 68.326 -158.9206
800.000000 68.308 -158.4390
812.000000 68.305 -157.7835
825.000000 68.263 -157.0370
838.000000 68.255 -155.8472
850.000000 68.312 -154.7091
862.000000 68.414 -153.8374
875.000000 68.533 -153.7114
885.000000 68.502 -153.5443
900.000000 68.290 -151.9696
912.000000 68.154 -149.0298
925.000000 68.380 -144.5130
938.000000 68.945 -142.8349
950.000000 69.236 -143.0349
962.000000 69.476 -143.3378
975.000000 69.630 -143.5291
988.000000 69.755 -143.3303
1000.000000 69.714 -143.1980
1015.000000 69.925 -142.4630
1030.000000 70.020 -142.2128
1044.000000 70.117 -141.8462
1060.000000 70.201 -141.3668
1075.000000 70.329 -140.9899
1090.000000 70.439 -140.4940
1106.000000 70.542 -140.2905
1120.000000 70.712 -139.8796
1138.000000 70.811 -139.5079
1150.000000 70.917 -139.2018
1172.000000 71.067 -138.9167
1180.000000 71.137 -138.9925
1206.000000 71.352 -138.3841
1220.000000 71.426 -138.0808
1241.000000 71.549 -138.3438
1250.000000 71.608 -137.9131
1265.000000 71.700 -138.1015
1280.000000 71.802 -137.7690
1315.000000 71.989 -137.3896
1320.000000 72.030 -137.4738
1340.000000 72.146 -137.1123
1360.000000 72.237 -137.0119
1380.000000 72.364 -136.5960
1400.000000 72.452 -136.5191
1430.000000 72.654 -135.9794
1450.000000 72.760 -135.8303
1475.000000 72.917 -135.6349
1500.000000 73.104 -135.2374
1525.000000 73.243 -135.0500
1550.000000 73.404 -134.7615
1575.000000 73.567 -134.7734
1600.000000 73.698 -134.8274
1625.000000 73.880 -134.7990
1650.000000 74.032 -134.8640
1675.000000 74.177 -134.8245
1700.000000 74.318 -134.7727
1725.000000 74.487 -134.8809
1750.000000 74.628 -134.8661
1775.000000 74.777 -135.0348
1800.000000 74.919 -135.1619
1825.000000 75.070 -135.2363
1850.000000 75.217 -135.3718
1875.000000 75.373 -135.4207
1900.000000 75.557 -135.7723
1925.000000 75.717 -136.0861
1950.000000 75.867 -136.3332
1975.000000 76.050 -136.6475
2000.000000 76.221 -136.6001
2030.000000 76.416 -137.7935
2060.000000 76.602 -138.4133
2090.000000 76.796 -139.3597
2120.000000 77.002 -140.2714
2140.000000 77.061 -140.9818
2180.000000 77.287 -142.2996
2200.000000 77.360 -142.9925
2240.000000 77.521 -144.3605
2270.000000 77.641 -145.1416
2300.000000 77.748 -146.0798
2330.000000 77.905 -147.2908
2360.000000 78.018 -148.7633
2400.000000 78.154 -150.6833
2430.000000 78.191 -152.2827
2470.000000 78.194 -154.2632
2500.000000 78.170 -155.7382
2540.000000 78.093 -157.2345
2580.000000 78.045 -158.2764
2620.000000 77.986 -159.4320
2650.000000 77.987 -160.0607
2690.000000 77.977 -161.3798
2720.000000 77.961 -162.3567
2760.000000 77.882 -163.5591
2800.000000 77.836 -164.6567
2850.000000 77.768 -166.1366
2900.000000 77.654 -167.5933
2950.000000 77.499 -168.9158
3000.000000 77.256 -170.4206
3040.000000 77.138 -170.7826
3070.000000 77.037 -171.3887
3110.000000 76.873 -171.6662
3150.000000 76.701 -171.9922
3200.000000 76.517 -172.0555
3250.000000 76.341 -172.0124
3300.000000 76.199 -171.8078
3350.000000 76.075 -171.5841
3400.000000 75.943 -171.3561
3450.000000 75.849 -171.1108
3500.000000 75.732 -170.7999
3550.000000 75.640 -170.4052
3600.000000 75.535 -169.7326
3650.000000 75.486 -169.0443
3700.000000 75.407 -168.3961
3750.000000 75.366 -167.5825
3820.000000 75.321 -166.7525
3870.000000 75.343 -165.8908
3950.000000 75.330 -164.5353
4000.000000 75.455 -164.1220
4060.000000 75.511 -162.2377
4120.000000 75.646 -161.2928
4180.000000 75.859 -160.6077
4250.000000 76.087 -160.0273
4310.000000 76.319 -159.6913
4370.000000 76.523 -159.8732
4440.000000 76.869 -160.2761
4500.000000 77.093 -160.7809
4550.000000 77.320 -161.5185
4620.000000 77.563 -162.7379
4680.000000 77.790 -164.2557
4750.000000 77.961 -166.1855
4820.000000 78.140 -168.5640
4870.000000 78.210 -170.2385
4940.000000 78.250 -173.0293
5000.000000 78.187 -175.1746
5080.000000 78.093 -178.3749
5150.000000 77.934 179.4788
5220.000000 77.695 177.3867
5300.000000 77.416 175.4129
5380.000000 77.077 173.6832
5450.000000 76.759 172.4786
5520.000000 76.468 171.3918
5600.000000 76.064 170.5861
5700.000000 75.479 170.2763
5800.000000 74.989 170.6903
5900.000000 74.519 171.8118
6000.000000 74.051 173.1008
6080.000000 73.838 174.9535
6150.000000 73.612 176.5775
6220.000000 73.349 178.0525
6300.000000 73.247 -179.9784
6400.000000 73.089 -176.7533
6500.000000 73.054 -174.2811
6600.000000 73.037 -171.5173
6700.000000 73.087 -168.8169
6800.000000 73.281 -165.8788
6900.000000 73.530 -163.5440
7000.000000 73.807 -161.1821
7100.000000 74.266 -159.0576
7200.000000 74.770 -157.6014
7300.000000 75.400 -156.5028
7400.000000 76.110 -156.1465
7500.000000 76.915 -156.8337
7620.000000 78.018 -159.4441
7750.000000 79.213 -165.5567
7880.000000 80.259 -175.6305
8000.000000 80.661 171.8578
8120.000000 80.276 158.0607
8250.000000 79.061 145.8744
8380.000000 77.490 137.6891
8500.000000 75.954 133.6226
8620.000000 74.541 131.5292
8750.000000 73.075 131.7100
8850.000000 72.033 132.6972
9000.000000 70.770 135.5063
9120.000000 69.794 137.2845
9250.000000 68.993 140.5771
9380.000000 68.220 144.6787
9500.000000 67.543 148.6464
9620.000000 66.960 152.5101
9750.000000 66.360 157.6604
9880.000000 66.038 161.3406
10000.000000 65.820 165.7039
10150.000000 65.404 170.8542
10300.000000 65.093 178.0858
10440.000000 65.251 -177.1254
10600.000000 65.244 -172.2592
10750.000000 65.287 -166.4040
10900.000000 65.518 -160.1722
11060.000000 66.190 -155.3864
11200.000000 66.755 -149.9579
11380.000000 67.715 -144.7589
11500.000000 68.517 -141.9869
11720.000000 70.599 -138.4370
11800.000000 71.553 -139.0650
12060.000000 75.447 -149.8387
12200.000000 77.133 -169.2983
12410.000000 75.733 155.1870
12500.000000 74.056 146.7332
12650.000000 71.535 140.5515
12800.000000 69.327 139.4835
13150.000000 65.537 146.2417
13200.000000 65.069 149.0635
13400.000000 63.510 155.0977
13600.000000 62.634 163.1974
13800.000000 61.989 169.5486
14000.000000 61.464 176.7466
14300.000000 61.284 -171.1632
14500.000000 61.217 -166.1844
14750.000000 61.573 -156.5114
15000.000000 62.580 -148.0388
15250.000000 63.734 -142.1347
15500.000000 65.761 -138.7478
15750.000000 68.456 -142.2015
16000.000000 71.372 -161.9055
16250.000000 70.692 164.2965
16500.000000 67.103 147.8071
16750.000000 64.211 145.8912
17000.000000 61.459 149.2929
17250.000000 59.870 154.7800
17500.000000 58.863 163.8656
17750.000000 57.821 171.6924
18000.000000 57.421 177.7943
18250.000000 57.290 179.8144
18500.000000 57.460 -175.1243
18750.000000 58.280 -179.1285
19000.000000 58.134 170.8434
19250.000000 56.207 159.5261
19500.000000 53.226 154.3436
19750.000000 50.314 163.7599
20000.000000 46.230 172.6539
20300.000000 44.241 173.8528
20600.000000 43.552 172.7307
20900.000000 40.871 -171.0348
21200.000000 34.038 -170.1588
21400.000000 34.719 166.6786
21800.000000 19.690 -153.8202
22000.000000 21.268 -164.7212
22400.000000 21.376 160.4160
22700.000000 15.639 89.9121
23000.000000 17.135 -156.6367
23300.000000 25.066 30.5234
23600.000000 27.190 -99.8242

