* Measurement data measured by REW V5.20.13
* Source: Microphone (USB Sound Device        ), MICROPHONE (Master Volume), R, volume: 0,250
* Format: 256k Log Swept Sine, 1 sweep at -12,0 dBFS with no timing reference
* Dated: 18:24:45 05-04-2024
* REW Settings:
*  C-weighting compensation: Off
*  Target level: 75.0 dB
* Note: ; 
* Measurement: DM 400 + 500 R
* Smoothing: None
* Frequency Step: 1/48 octave
* Start Frequency: 1.000 Hz
*
* Freq(Hz) SPL(dB) Phase(degrees)
1.000000 84.680 120.5732
1.015000 84.507 119.6617
1.030000 84.327 118.7466
1.044000 84.154 117.8891
1.060000 83.948 116.9047
1.075000 83.747 115.9772
1.090000 83.539 115.0450
1.106000 83.310 114.0664
1.120000 83.118 113.3375
1.138000 82.880 112.5818
1.150000 82.727 112.1743
1.172000 82.454 111.5854
1.180000 82.355 111.4112
1.206000 82.034 110.9386
1.220000 81.857 110.7145
1.241000 81.582 110.3699
1.250000 81.460 110.2062
1.265000 81.248 109.8948
1.280000 81.024 109.5161
1.315000 80.445 108.2483
1.320000 80.354 108.0114
1.340000 79.969 106.8921
1.360000 79.544 105.4592
1.380000 79.075 103.6611
1.400000 78.555 101.4458
1.430000 77.671 97.2279
1.450000 77.005 93.7437
1.475000 76.061 88.5230
1.500000 74.870 82.1667
1.525000 73.443 74.7746
1.550000 71.831 66.5003
1.575000 70.083 57.4976
1.600000 68.249 47.9205
1.625000 66.376 37.9227
1.650000 64.515 27.6581
1.675000 62.716 17.2805
1.700000 61.027 6.9436
1.725000 59.497 -3.1987
1.750000 58.177 -12.9925
1.775000 57.114 -22.2840
1.800000 56.360 -30.9195
1.825000 55.962 -38.7451
1.850000 55.965 -45.8383
1.875000 56.355 -52.6739
1.900000 57.082 -59.2705
1.925000 58.093 -65.6245
1.950000 59.340 -71.7327
1.975000 60.770 -77.5913
2.000000 62.333 -83.1970
2.030000 64.313 -89.5850
2.060000 66.322 -95.5977
2.090000 68.275 -101.2292
2.120000 70.081 -106.4734
2.140000 71.162 -109.7514
2.180000 72.907 -115.7758
2.200000 73.521 -118.5173
2.240000 74.435 -123.1761
2.270000 74.942 -125.9500
2.300000 75.316 -128.2006
2.330000 75.577 -130.0123
2.360000 75.742 -131.4697
2.400000 75.845 -133.0080
2.430000 75.858 -133.9676
2.470000 75.826 -135.1489
2.500000 75.788 -136.0709
2.540000 75.754 -137.5089
2.580000 75.767 -139.3281
2.620000 75.753 -141.2863
2.650000 75.711 -142.7687
2.690000 75.612 -144.7206
2.720000 75.506 -146.1364
2.760000 75.322 -147.9169
2.800000 75.090 -149.5255
2.850000 74.730 -151.2123
2.900000 74.294 -152.4409
2.950000 73.768 -153.1882
3.000000 73.054 -154.0176
3.040000 72.371 -154.6644
3.070000 71.818 -155.0342
3.110000 71.055 -155.2450
3.150000 70.296 -154.9858
3.200000 69.409 -153.7560
3.250000 68.657 -151.2271
3.300000 68.111 -147.0806
3.350000 67.717 -140.4380
3.400000 67.411 -131.4399
3.450000 67.199 -120.9844
3.500000 67.090 -109.9690
3.550000 67.092 -99.2917
3.600000 67.212 -89.8503
3.650000 67.458 -82.5425
3.700000 67.879 -77.7546
3.750000 68.538 -74.5542
3.820000 69.727 -72.1185
3.870000 70.664 -71.4435
3.950000 72.105 -71.4020
4.000000 72.853 -71.5712
4.060000 73.505 -71.7027
4.120000 74.010 -72.5306
4.180000 74.411 -73.9788
4.250000 74.768 -76.1328
4.310000 75.000 -78.1030
4.370000 75.183 -79.9348
4.440000 75.340 -81.7803
4.500000 75.400 -83.4571
4.550000 75.400 -84.8860
4.620000 75.338 -86.8300
4.680000 75.236 -88.3470
4.750000 75.075 -89.8171
4.820000 74.855 -91.0014
4.870000 74.647 -91.7813
4.940000 74.305 -92.6841
5.000000 73.986 -93.1923
5.080000 73.555 -93.3376
5.150000 73.196 -92.8222
5.220000 72.796 -91.6293
5.300000 72.311 -89.6212
5.380000 71.864 -87.1756
5.450000 71.558 -84.8822
5.520000 71.378 -82.5642
5.600000 71.307 -79.3772
5.700000 71.364 -75.0280
5.800000 71.521 -71.2007
5.900000 71.731 -68.7942
6.000000 72.066 -67.5599
6.080000 72.380 -67.2001
6.150000 72.642 -67.2651
6.220000 72.853 -67.6210
6.300000 73.034 -68.4808
6.400000 73.217 -70.3038
6.500000 73.339 -72.6025
6.600000 73.386 -74.9968
6.700000 73.346 -77.5815
6.800000 73.232 -80.4110
6.900000 73.063 -83.2252
7.000000 72.851 -85.8106
7.100000 72.571 -88.3352
7.200000 72.250 -90.7178
7.300000 71.927 -92.7930
7.400000 71.613 -94.4458
7.500000 71.277 -95.7525
7.620000 70.914 -96.9656
7.750000 70.651 -97.9055
7.880000 70.497 -98.2816
8.000000 70.453 -98.5655
8.120000 70.523 -99.1956
8.250000 70.740 -100.0684
8.380000 71.029 -101.2638
8.500000 71.312 -102.8292
8.620000 71.640 -104.8169
8.750000 71.996 -107.1891
8.850000 72.241 -109.0536
9.000000 72.584 -112.0775
9.120000 72.831 -114.4326
9.250000 73.060 -116.7308
9.380000 73.251 -118.8714
9.500000 73.411 -120.5871
9.620000 73.558 -121.9694
9.750000 73.699 -123.1493
9.880000 73.843 -124.0535
10.000000 73.989 -124.6224
10.150000 74.178 -125.0120
10.300000 74.386 -125.2812
10.440000 74.601 -125.4008
10.600000 74.854 -125.4870
10.750000 75.089 -125.6359
10.900000 75.321 -125.8027
11.060000 75.544 -126.0007
11.200000 75.719 -126.2010
11.380000 75.918 -126.4093
11.500000 76.030 -126.5007
11.720000 76.208 -126.5776
11.800000 76.266 -126.5651
12.060000 76.432 -126.4191
12.200000 76.515 -126.3251
12.410000 76.627 -126.1770
12.500000 76.669 -126.1424
12.650000 76.732 -126.1175
12.800000 76.784 -126.1278
13.150000 76.844 -126.2908
13.200000 76.846 -126.3158
13.400000 76.839 -126.4165
13.600000 76.820 -126.5011
13.800000 76.791 -126.5499
14.000000 76.766 -126.6373
14.300000 76.738 -126.8961
14.500000 76.728 -127.2567
14.750000 76.711 -127.9413
15.000000 76.684 -128.8812
15.250000 76.637 -129.9817
15.500000 76.580 -131.1288
15.750000 76.522 -132.2646
16.000000 76.483 -133.3360
16.250000 76.475 -134.4006
16.500000 76.501 -135.4949
16.750000 76.558 -136.6830
17.000000 76.632 -137.9530
17.250000 76.714 -139.2607
17.500000 76.796 -140.5393
17.750000 76.878 -141.6910
18.000000 76.964 -142.6933
18.250000 77.059 -143.5239
18.500000 77.164 -144.2238
18.750000 77.277 -144.8253
19.000000 77.393 -145.3581
19.250000 77.504 -145.8359
19.500000 77.606 -146.2474
19.750000 77.697 -146.5862
20.000000 77.777 -146.8463
20.299999 77.862 -147.0817
20.600000 77.934 -147.2668
20.900000 77.991 -147.4367
21.200001 78.028 -147.6065
21.400000 78.043 -147.7128
21.799999 78.051 -147.9062
22.000000 78.049 -148.0034
22.400000 78.040 -148.2501
22.700001 78.030 -148.5374
23.000000 78.012 -148.9423
23.299999 77.984 -149.4400
23.600000 77.947 -149.9878
24.000000 77.895 -150.7369
24.299999 77.866 -151.3037
24.700001 77.849 -152.1071
25.000000 77.852 -152.7766
25.400000 77.870 -153.7543
25.799999 77.896 -154.7555
26.200001 77.930 -155.6945
26.500000 77.963 -156.3338
26.900000 78.017 -157.1012
27.200001 78.061 -157.6179
27.600000 78.122 -158.2246
28.000000 78.181 -158.7287
28.500000 78.250 -159.2345
29.000000 78.307 -159.6555
29.500000 78.343 -160.0139
30.000000 78.362 -160.3121
30.400000 78.368 -160.5414
30.700001 78.369 -160.7359
31.100000 78.361 -161.0432
31.500000 78.343 -161.3907
32.000000 78.313 -161.8468
32.500000 78.288 -162.3432
33.000000 78.269 -162.9312
33.500000 78.250 -163.5845
34.000000 78.235 -164.2049
34.500000 78.238 -164.7660
35.000000 78.263 -165.3426
35.500000 78.293 -165.9771
36.000000 78.313 -166.5953
36.500000 78.325 -167.1062
37.000000 78.337 -167.5058
37.500000 78.352 -167.8505
38.200001 78.366 -168.3042
38.700001 78.368 -168.6160
39.500000 78.362 -169.1209
40.000000 78.352 -169.4477
40.599998 78.341 -169.8679
41.200001 78.329 -170.3469
41.799999 78.311 -170.8518
42.500000 78.290 -171.3832
43.099998 78.283 -171.7954
43.700001 78.285 -172.2242
44.400002 78.286 -172.7412
45.000000 78.281 -173.1499
45.500000 78.276 -173.4515
46.200001 78.272 -173.8554
46.799999 78.266 -174.2372
47.500000 78.247 -174.6978
48.200001 78.222 -175.1038
48.700001 78.207 -175.3816
49.400002 78.184 -175.7848
50.000000 78.163 -176.0825
50.799999 78.150 -176.4008
51.500000 78.152 -176.7220
52.200001 78.152 -177.0726
53.000000 78.151 -177.4828
53.799999 78.141 -177.9739
54.500000 78.111 -178.3697
55.200001 78.081 -178.6579
56.000000 78.064 -178.9862
57.000000 78.045 -179.5142
58.000000 78.020 179.9740
59.000000 78.002 179.5281
60.000000 77.989 179.1206
60.799999 77.978 178.8043
61.500000 77.962 178.5271
62.200001 77.940 178.2815
63.000000 77.917 178.0259
64.000000 77.891 177.6550
65.000000 77.857 177.2047
66.000000 77.818 176.8427
67.000000 77.801 176.4631
68.000000 77.765 176.0661
69.000000 77.748 175.8336
70.000000 77.720 175.3817
71.000000 77.663 175.2371
72.000000 77.664 175.0659
73.000000 77.639 174.5745
74.000000 77.591 174.2603
75.000000 77.561 174.0044
76.199997 77.533 173.6793
77.500000 77.500 173.3232
78.800003 77.465 172.9969
80.000000 77.429 172.7078
81.199997 77.391 172.4228
82.500000 77.356 172.1802
83.800003 77.323 171.8470
85.000000 77.284 171.6241
86.199997 77.253 171.3391
87.500000 77.206 171.0347
88.500000 77.172 170.8083
90.000000 77.124 170.5258
91.199997 77.099 170.2626
92.500000 77.053 170.0180
93.800003 77.018 169.8448
95.000000 76.975 169.6955
96.199997 76.946 169.5213
97.500000 76.902 169.3098
98.800003 76.872 168.9868
100.000000 76.817 168.8410
101.500000 76.790 168.5726
103.000000 76.744 168.4785
104.400002 76.704 168.1435
106.000000 76.642 168.0283
107.500000 76.593 167.8898
109.000000 76.558 167.7750
110.599998 76.519 167.5119
112.000000 76.480 167.4321
113.800003 76.445 167.1603
115.000000 76.407 167.0168
117.199997 76.346 166.9272
118.000000 76.320 166.7843
120.599998 76.234 166.5302
122.000000 76.185 166.4299
124.099998 76.141 166.2112
125.000000 76.110 166.0720
126.500000 76.063 166.0793
128.000000 76.025 165.9299
131.500000 75.916 165.7718
132.000000 75.902 165.7480
134.000000 75.848 165.6792
136.000000 75.783 165.5541
138.000000 75.724 165.5718
140.000000 75.666 165.5275
143.000000 75.583 165.5556
145.000000 75.518 165.6595
147.500000 75.470 165.8599
150.000000 75.401 165.8033
152.500000 75.419 165.6877
155.000000 75.386 165.5932
157.500000 75.332 165.4539
160.000000 75.264 165.2406
162.500000 75.195 165.1209
165.000000 75.134 165.1005
167.500000 75.073 165.0617
170.000000 74.996 165.1328
172.500000 74.919 165.1848
175.000000 74.840 165.3433
177.500000 74.779 165.4434
180.000000 74.691 165.8545
182.500000 74.618 166.1447
185.000000 74.580 166.7255
187.500000 74.577 167.2407
190.000000 74.609 167.6647
192.500000 74.653 167.7241
195.000000 74.706 167.5934
197.500000 74.736 167.4230
200.000000 74.709 167.2699
203.000000 74.670 166.8562
206.000000 74.626 166.6524
209.000000 74.577 166.6150
212.000000 74.508 166.4249
214.000000 74.468 166.4214
218.000000 74.408 166.5171
220.000000 74.367 166.5357
224.000000 74.301 166.6043
227.000000 74.253 166.5989
230.000000 74.217 166.6890
233.000000 74.175 166.7264
236.000000 74.120 166.7743
240.000000 74.061 166.8736
243.000000 74.021 167.0769
247.000000 73.974 167.1454
250.000000 73.965 167.1324
254.000000 73.886 167.3659
258.000000 73.837 167.5422
262.000000 73.777 167.7532
265.000000 73.744 167.8258
269.000000 73.705 167.9592
272.000000 73.664 168.2027
276.000000 73.632 168.2104
280.000000 73.599 168.5234
285.000000 73.559 168.5933
290.000000 73.523 168.6955
295.000000 73.462 169.0078
300.000000 73.426 169.0365
304.000000 73.378 169.3947
307.000000 73.344 169.3617
311.000000 73.315 169.5015
315.000000 73.269 169.5775
320.000000 73.218 169.7681
325.000000 73.175 170.0781
330.000000 73.132 170.3605
335.000000 73.088 170.5785
340.000000 73.066 170.7103
345.000000 73.002 170.8503
350.000000 72.976 170.9949
355.000000 72.908 171.3960
360.000000 72.882 171.5405
365.000000 72.856 171.7629
370.000000 72.819 172.1120
375.000000 72.765 172.3726
382.000000 72.742 172.6504
387.000000 72.708 172.9106
395.000000 72.641 173.3314
400.000000 72.616 173.4229
406.000000 72.596 173.7067
412.000000 72.565 174.2058
418.000000 72.528 174.3440
425.000000 72.473 174.7397
431.000000 72.449 175.0069
437.000000 72.414 175.3752
444.000000 72.393 175.7393
450.000000 72.347 176.0812
455.000000 72.334 176.2138
462.000000 72.322 176.4658
468.000000 72.244 176.8998
475.000000 72.236 177.1467
482.000000 72.199 177.5186
487.000000 72.190 177.5778
494.000000 72.177 178.0646
500.000000 72.140 178.2736
508.000000 72.125 178.7957
515.000000 72.094 179.2184
522.000000 72.032 179.5821
530.000000 72.033 179.8073
538.000000 72.006 -179.6066
545.000000 71.990 -179.2845
552.000000 71.947 -178.9889
560.000000 71.944 -178.6471
570.000000 71.923 -178.0314
580.000000 71.883 -177.6284
590.000000 71.864 -177.1176
600.000000 71.835 -176.6035
608.000000 71.850 -176.3481
615.000000 71.806 -175.7054
622.000000 71.806 -175.4418
630.000000 71.795 -174.8588
640.000000 71.775 -174.7561
650.000000 71.758 -173.9473
660.000000 71.753 -173.5783
670.000000 71.710 -173.0349
680.000000 71.741 -172.5090
690.000000 71.747 -172.3480
700.000000 71.690 -171.7221
710.000000 71.656 -171.0223
720.000000 71.613 -170.4963
730.000000 71.607 -169.7999
740.000000 71.612 -169.1600
750.000000 71.621 -168.5821
762.000000 71.650 -167.7868
775.000000 71.646 -167.2080
788.000000 71.672 -166.4358
800.000000 71.700 -165.7150
812.000000 71.696 -165.2074
825.000000 71.729 -164.5827
838.000000 71.740 -163.9625
850.000000 71.752 -163.1313
862.000000 71.745 -162.4803
875.000000 71.777 -161.8237
885.000000 71.821 -161.2433
900.000000 71.883 -160.4677
912.000000 71.913 -159.7726
925.000000 71.945 -158.9106
938.000000 71.998 -158.2359
950.000000 72.089 -157.6029
962.000000 72.160 -157.0065
975.000000 72.225 -156.3445
988.000000 72.293 -155.8869
1000.000000 72.347 -154.8675
1015.000000 72.438 -154.8524
1030.000000 72.531 -154.2427
1044.000000 72.641 -153.6822
1060.000000 72.751 -153.2398
1075.000000 72.831 -152.9889
1090.000000 72.926 -152.4929
1106.000000 73.023 -152.1527
1120.000000 73.125 -152.0141
1138.000000 73.234 -151.6172
1150.000000 73.294 -151.5008
1172.000000 73.466 -150.9830
1180.000000 73.497 -151.1105
1206.000000 73.631 -150.7287
1220.000000 73.710 -150.7641
1241.000000 73.805 -150.5501
1250.000000 73.856 -150.5577
1265.000000 73.916 -150.3351
1280.000000 74.015 -150.3924
1315.000000 74.162 -150.0287
1320.000000 74.175 -150.0937
1340.000000 74.259 -150.0955
1360.000000 74.320 -149.9557
1380.000000 74.420 -149.8252
1400.000000 74.493 -149.7942
1430.000000 74.602 -149.8654
1450.000000 74.683 -149.5874
1475.000000 74.748 -149.5804
1500.000000 74.874 -149.4626
1525.000000 74.940 -149.5550
1550.000000 75.029 -149.5392
1575.000000 75.130 -149.5017
1600.000000 75.202 -149.4931
1625.000000 75.299 -149.4094
1650.000000 75.374 -149.4965
1675.000000 75.483 -149.4906
1700.000000 75.567 -149.5127
1725.000000 75.652 -149.6068
1750.000000 75.740 -149.6628
1775.000000 75.801 -149.8984
1800.000000 75.896 -149.9767
1825.000000 76.000 -150.0214
1850.000000 76.071 -150.1514
1875.000000 76.166 -150.3213
1900.000000 76.225 -150.5321
1925.000000 76.310 -150.8944
1950.000000 76.390 -151.1087
1975.000000 76.463 -151.3304
2000.000000 76.514 -151.9755
2030.000000 76.602 -151.9846
2060.000000 76.717 -152.4207
2090.000000 76.782 -152.7478
2120.000000 76.860 -153.3819
2140.000000 76.907 -153.6093
2180.000000 76.977 -154.4261
2200.000000 77.034 -154.6347
2240.000000 77.095 -155.4746
2270.000000 77.148 -156.0052
2300.000000 77.196 -156.5923
2330.000000 77.221 -157.0587
2360.000000 77.256 -157.6640
2400.000000 77.280 -158.4835
2430.000000 77.325 -159.1536
2470.000000 77.306 -159.8492
2500.000000 77.306 -160.5664
2540.000000 77.289 -161.1467
2580.000000 77.277 -161.9358
2620.000000 77.244 -162.6712
2650.000000 77.217 -163.2476
2690.000000 77.175 -163.6117
2720.000000 77.117 -164.0324
2760.000000 77.063 -164.3945
2800.000000 77.060 -164.7563
2850.000000 77.008 -165.1916
2900.000000 76.945 -165.8558
2950.000000 76.912 -166.4023
3000.000000 76.805 -167.1174
3040.000000 76.777 -167.0157
3070.000000 76.739 -167.2572
3110.000000 76.667 -167.4170
3150.000000 76.580 -167.6869
3200.000000 76.497 -167.6549
3250.000000 76.438 -167.6229
3300.000000 76.386 -167.5697
3350.000000 76.332 -167.3890
3400.000000 76.323 -167.6102
3450.000000 76.292 -167.7698
3500.000000 76.236 -167.9638
3550.000000 76.147 -168.0584
3600.000000 76.012 -168.0067
3650.000000 75.887 -167.1814
3700.000000 75.948 -166.3076
3750.000000 75.970 -166.1317
3820.000000 75.986 -165.8937
3870.000000 76.004 -165.7521
3950.000000 75.972 -165.5778
4000.000000 75.945 -164.7064
4060.000000 76.016 -164.8640
4120.000000 76.064 -164.5041
4180.000000 76.109 -164.4164
4250.000000 76.179 -164.4383
4310.000000 76.248 -164.5219
4370.000000 76.316 -164.6807
4440.000000 76.336 -164.8471
4500.000000 76.407 -164.8866
4550.000000 76.454 -165.2131
4620.000000 76.518 -165.5146
4680.000000 76.587 -165.9840
4750.000000 76.620 -166.7747
4820.000000 76.636 -167.3319
4870.000000 76.652 -167.8732
4940.000000 76.676 -168.7047
5000.000000 76.644 -169.8526
5080.000000 76.640 -170.4061
5150.000000 76.557 -171.3106
5220.000000 76.477 -172.1585
5300.000000 76.346 -173.0121
5380.000000 76.208 -173.6238
5450.000000 76.079 -174.1677
5520.000000 75.931 -174.7396
5600.000000 75.762 -175.3228
5700.000000 75.507 -175.3525
5800.000000 75.231 -175.4167
5900.000000 74.981 -174.9929
6000.000000 74.680 -174.2218
6080.000000 74.557 -172.9666
6150.000000 74.454 -172.2903
6220.000000 74.358 -171.3692
6300.000000 74.292 -170.4679
6400.000000 74.177 -169.0138
6500.000000 74.127 -167.9362
6600.000000 74.085 -166.7038
6700.000000 74.096 -165.3279
6800.000000 74.102 -163.8722
6900.000000 74.179 -162.2776
7000.000000 74.263 -160.7669
7100.000000 74.448 -159.5071
7200.000000 74.683 -158.1461
7300.000000 75.043 -157.1500
7400.000000 75.363 -156.4908
7500.000000 75.806 -156.4410
7620.000000 76.361 -157.2036
7750.000000 77.049 -159.0756
7880.000000 77.699 -163.2648
8000.000000 78.179 -168.5433
8120.000000 78.513 -174.9590
8250.000000 78.498 176.9599
8380.000000 78.063 168.9336
8500.000000 77.359 162.5500
8620.000000 76.511 157.7496
8750.000000 75.515 154.4057
8850.000000 74.666 152.7342
9000.000000 73.506 152.3282
9120.000000 72.693 152.2888
9250.000000 71.834 153.7614
9380.000000 71.129 155.0284
9500.000000 70.447 156.7841
9620.000000 69.846 159.4867
9750.000000 69.334 161.9950
9880.000000 68.902 165.4123
10000.000000 68.525 167.6057
10150.000000 68.163 172.5682
10300.000000 67.948 177.0640
10440.000000 67.890 -178.8379
10600.000000 67.799 -175.2018
10750.000000 67.856 -170.6209
10900.000000 68.045 -166.1679
11060.000000 68.470 -161.6493
11200.000000 68.873 -158.7907
11380.000000 69.637 -155.0601
11500.000000 70.328 -152.9991
11720.000000 71.932 -151.6598
11800.000000 72.727 -153.5992
12060.000000 75.392 -165.4414
12200.000000 76.256 -179.6439
12410.000000 75.321 154.6186
12500.000000 74.194 147.2118
12650.000000 72.022 139.1174
12800.000000 70.093 136.9716
13150.000000 66.584 140.3564
13200.000000 66.220 142.9287
13400.000000 64.994 146.2045
13600.000000 64.103 150.8940
13800.000000 63.200 157.7107
14000.000000 62.977 161.3337
14300.000000 61.942 168.5967
14500.000000 61.549 171.1948
14750.000000 61.258 177.7671
15000.000000 61.227 -178.6954
15250.000000 61.108 -173.0272
15500.000000 61.724 -169.4226
15750.000000 62.424 -165.6266
16000.000000 63.405 -165.8233
16250.000000 64.428 -173.3740
16500.000000 65.043 177.5875
16750.000000 64.320 162.6795
17000.000000 62.766 149.5956
17250.000000 60.782 146.4498
17500.000000 58.522 145.6181
17750.000000 56.497 148.0825
18000.000000 55.325 146.9389
18250.000000 54.199 146.3463
18500.000000 51.132 157.3539
18750.000000 50.175 156.1689
19000.000000 47.587 167.2139
19250.000000 46.842 161.5123
19500.000000 46.096 177.4891
19750.000000 43.362 -171.0923
20000.000000 43.566 173.7134
20300.000000 41.932 -149.4229
20600.000000 36.190 -151.6952
20900.000000 33.155 -134.7276
21200.000000 26.667 -170.5795
21400.000000 23.520 -148.6664
21800.000000 18.750 -116.9199
22000.000000 23.320 -108.2715
22400.000000 16.301 -157.0430
22700.000000 10.708 -66.5039
23000.000000 15.204 93.4961
23300.000000 7.632 89.8125
23600.000000 24.412 39.9453

