* Measurement data measured by REW V5.20.13
* Source: Microphone (USB Sound Device        ), MICROPHONE (Master Volume), R, volume: 0,250
* Format: 256k Log Swept Sine, 1 sweep at -12,0 dBFS with no timing reference
* Dated: 14:11:41 05-04-2024
* REW Settings:
*  C-weighting compensation: Off
*  Target level: 75.0 dB
* Note: ; 
* Measurement: DM L
* Smoothing: None
* Frequency Step: 1/48 octave
* Start Frequency: 1.000 Hz
*
* Freq(Hz) SPL(dB) Phase(degrees)
1.000000 84.612 120.8515
1.015000 84.438 119.9436
1.030000 84.258 119.0319
1.044000 84.084 118.1774
1.060000 83.878 117.1961
1.075000 83.677 116.2713
1.090000 83.468 115.3415
1.106000 83.239 114.3653
1.120000 83.044 113.6382
1.138000 82.804 112.8847
1.150000 82.649 112.4785
1.172000 82.369 111.8917
1.180000 82.269 111.7182
1.206000 81.939 111.2475
1.220000 81.758 111.0242
1.241000 81.477 110.6805
1.250000 81.351 110.5172
1.265000 81.135 110.2062
1.280000 80.907 109.8279
1.315000 80.320 108.5603
1.320000 80.228 108.3234
1.340000 79.841 107.2040
1.360000 79.416 105.7708
1.380000 78.948 103.9721
1.400000 78.432 101.7562
1.430000 77.559 97.5370
1.450000 76.903 94.0518
1.475000 75.978 88.8290
1.500000 74.814 82.4654
1.525000 73.424 75.0605
1.550000 71.855 66.7696
1.575000 70.155 57.7480
1.600000 68.371 48.1509
1.625000 66.552 38.1336
1.650000 64.745 27.8514
1.675000 62.998 17.4595
1.700000 61.358 7.1132
1.725000 59.874 -3.0323
1.750000 58.592 -12.8216
1.775000 57.561 -22.0996
1.800000 56.828 -30.7110
1.825000 56.441 -38.5005
1.850000 56.443 -45.5436
1.875000 56.821 -52.3138
1.900000 57.525 -58.8316
1.925000 58.506 -65.0956
1.950000 59.715 -71.1047
1.975000 61.103 -76.8572
2.000000 62.620 -82.3519
2.030000 64.541 -88.6033
2.060000 66.491 -94.4790
2.090000 68.386 -99.9765
2.120000 70.140 -105.0937
2.140000 71.189 -108.2926
2.180000 72.884 -114.1771
2.200000 73.481 -116.8599
2.240000 74.370 -121.4237
2.270000 74.864 -124.1419
2.300000 75.231 -126.3468
2.330000 75.487 -128.1198
2.360000 75.651 -129.5425
2.400000 75.756 -131.0356
2.430000 75.772 -131.9580
2.470000 75.744 -133.0799
2.500000 75.709 -133.9459
2.540000 75.676 -135.2885
2.580000 75.687 -136.9860
2.620000 75.666 -138.8253
2.650000 75.616 -140.2207
2.690000 75.507 -142.0517
2.720000 75.393 -143.3684
2.760000 75.201 -144.9978
2.800000 74.963 -146.4253
2.850000 74.605 -147.8294
2.900000 74.183 -148.6960
2.950000 73.685 -148.9620
3.000000 73.006 -149.0259
3.040000 72.356 -148.9066
3.070000 71.831 -148.6578
3.110000 71.111 -148.0406
3.150000 70.402 -147.0134
3.200000 69.590 -145.0140
3.250000 68.929 -142.0533
3.300000 68.491 -137.9487
3.350000 68.247 -131.9341
3.400000 68.132 -124.0541
3.450000 68.134 -115.0426
3.500000 68.240 -105.6330
3.550000 68.437 -96.5591
3.600000 68.711 -88.5546
3.650000 69.049 -82.3530
3.700000 69.485 -78.2806
3.750000 70.089 -75.5923
3.820000 71.122 -73.6152
3.870000 71.917 -73.1325
3.950000 73.133 -73.2646
4.000000 73.771 -73.5151
4.060000 74.345 -73.7487
4.120000 74.803 -74.5825
4.180000 75.173 -75.9535
4.250000 75.512 -77.9590
4.310000 75.736 -79.7917
4.370000 75.914 -81.5131
4.440000 76.065 -83.2842
4.500000 76.126 -84.8985
4.550000 76.132 -86.2775
4.620000 76.084 -88.1639
4.680000 75.998 -89.6507
4.750000 75.860 -91.1184
4.820000 75.670 -92.3253
4.870000 75.488 -93.1244
4.940000 75.189 -94.0760
5.000000 74.907 -94.6630
5.080000 74.525 -94.9940
5.150000 74.206 -94.7438
5.220000 73.851 -93.9338
5.300000 73.419 -92.4675
5.380000 73.017 -90.6162
5.450000 72.734 -88.8381
5.520000 72.554 -86.9996
5.600000 72.452 -84.4036
5.700000 72.441 -80.8021
5.800000 72.522 -77.5988
5.900000 72.670 -75.5552
6.000000 72.941 -74.4161
6.080000 73.206 -74.0148
6.150000 73.432 -74.0082
6.220000 73.618 -74.3009
6.300000 73.785 -75.0904
6.400000 73.968 -76.7763
6.500000 74.104 -78.9253
6.600000 74.173 -81.2026
6.700000 74.166 -83.7015
6.800000 74.096 -86.4630
6.900000 73.978 -89.2378
7.000000 73.820 -91.8219
7.100000 73.604 -94.3761
7.200000 73.351 -96.8225
7.300000 73.094 -99.0023
7.400000 72.842 -100.8144
7.500000 72.571 -102.3365
7.620000 72.276 -103.8339
7.750000 72.060 -105.0663
7.880000 71.929 -105.7635
8.000000 71.890 -106.2836
8.120000 71.951 -107.0012
8.250000 72.137 -107.8272
8.380000 72.389 -108.8695
8.500000 72.644 -110.2098
8.620000 72.944 -111.8719
8.750000 73.274 -113.8594
8.850000 73.502 -115.4494
9.000000 73.829 -118.0519
9.120000 74.065 -120.0986
9.250000 74.284 -122.1234
9.380000 74.469 -124.0374
9.500000 74.621 -125.5894
9.620000 74.759 -126.8596
9.750000 74.889 -127.9717
9.880000 75.019 -128.8417
10.000000 75.146 -129.4067
10.150000 75.308 -129.8280
10.300000 75.486 -130.1284
10.440000 75.668 -130.2765
10.600000 75.883 -130.3907
10.750000 76.083 -130.5493
10.900000 76.282 -130.7171
11.060000 76.473 -130.9196
11.200000 76.624 -131.1245
11.380000 76.794 -131.3525
11.500000 76.889 -131.4695
11.720000 77.037 -131.6125
11.800000 77.084 -131.6306
12.060000 77.216 -131.6023
12.200000 77.280 -131.5739
12.410000 77.364 -131.5263
12.500000 77.395 -131.5324
12.650000 77.440 -131.5722
12.800000 77.474 -131.6453
13.150000 77.498 -131.9500
13.200000 77.496 -131.9955
13.400000 77.473 -132.1805
13.600000 77.437 -132.3495
13.800000 77.394 -132.4831
14.000000 77.356 -132.6491
14.300000 77.313 -133.0121
14.500000 77.295 -133.4310
14.750000 77.272 -134.1839
15.000000 77.243 -135.1908
15.250000 77.196 -136.3648
15.500000 77.139 -137.5867
15.750000 77.079 -138.7922
16.000000 77.035 -139.9129
16.250000 77.020 -140.9928
16.500000 77.038 -142.0657
16.750000 77.087 -143.1962
17.000000 77.155 -144.3895
17.250000 77.232 -145.6114
17.500000 77.310 -146.8080
17.750000 77.386 -147.8873
18.000000 77.465 -148.8257
18.250000 77.549 -149.5990
18.500000 77.643 -150.2450
18.750000 77.742 -150.7977
19.000000 77.844 -151.2882
19.250000 77.940 -151.7353
19.500000 78.026 -152.1272
19.750000 78.099 -152.4563
20.000000 78.161 -152.7100
20.299999 78.221 -152.9339
20.600000 78.269 -153.0989
20.900000 78.304 -153.2422
21.200001 78.323 -153.3882
21.400000 78.327 -153.4868
21.799999 78.316 -153.6867
22.000000 78.305 -153.7963
22.400000 78.277 -154.0745
22.700001 78.252 -154.3790
23.000000 78.222 -154.7894
23.299999 78.184 -155.2846
23.600000 78.140 -155.8284
24.000000 78.084 -156.5808
24.299999 78.051 -157.1602
24.700001 78.030 -157.9890
25.000000 78.029 -158.6754
25.400000 78.038 -159.6599
25.799999 78.054 -160.6420
26.200001 78.077 -161.5388
26.500000 78.103 -162.1396
26.900000 78.148 -162.8578
27.200001 78.185 -163.3436
27.600000 78.233 -163.9139
28.000000 78.277 -164.3777
28.500000 78.326 -164.8218
29.000000 78.365 -165.1846
29.500000 78.384 -165.5036
30.000000 78.383 -165.7659
30.400000 78.374 -165.9525
30.700001 78.365 -166.1084
31.100000 78.349 -166.3716
31.500000 78.325 -166.6985
32.000000 78.288 -167.1574
32.500000 78.252 -167.6533
33.000000 78.226 -168.2253
33.500000 78.205 -168.8863
34.000000 78.185 -169.5683
34.500000 78.169 -170.1934
35.000000 78.164 -170.7469
35.500000 78.171 -171.2477
36.000000 78.184 -171.7064
36.500000 78.200 -172.1314
37.000000 78.212 -172.5317
37.500000 78.213 -172.8892
38.200001 78.203 -173.2686
38.700001 78.196 -173.4912
39.500000 78.181 -173.9214
40.000000 78.163 -174.2315
40.599998 78.138 -174.6138
41.200001 78.114 -175.0362
41.799999 78.086 -175.4934
42.500000 78.053 -175.9905
43.099998 78.033 -176.3801
43.700001 78.020 -176.7771
44.400002 78.005 -177.2411
45.000000 77.990 -177.6165
45.500000 77.974 -177.9070
46.200001 77.951 -178.2684
46.799999 77.932 -178.5426
47.500000 77.917 -178.8552
48.200001 77.910 -179.2125
48.700001 77.907 -179.5418
49.400002 77.884 179.9181
50.000000 77.842 179.5500
50.799999 77.796 179.3365
51.500000 77.786 179.1892
52.200001 77.781 178.9190
53.000000 77.755 178.5853
53.799999 77.721 178.3236
54.500000 77.695 178.0996
55.200001 77.669 177.8173
56.000000 77.630 177.4617
57.000000 77.587 177.1019
58.000000 77.567 176.6859
59.000000 77.536 176.2287
60.000000 77.503 175.9522
60.799999 77.487 175.7591
61.500000 77.469 175.5659
62.200001 77.445 175.3752
63.000000 77.412 175.1514
64.000000 77.366 174.8827
65.000000 77.325 174.5465
66.000000 77.273 174.2434
67.000000 77.248 174.0426
68.000000 77.224 173.7228
69.000000 77.196 173.5376
70.000000 77.174 173.2923
71.000000 77.132 173.0973
72.000000 77.103 172.9057
73.000000 77.059 172.6368
74.000000 77.021 172.4587
75.000000 76.991 172.1509
76.199997 76.931 171.9402
77.500000 76.912 171.7900
78.800003 76.865 171.4856
80.000000 76.826 171.4130
81.199997 76.796 171.1769
82.500000 76.746 170.9866
83.800003 76.709 170.7725
85.000000 76.666 170.5995
86.199997 76.631 170.4513
87.500000 76.593 170.2597
88.500000 76.560 170.1297
90.000000 76.521 170.0061
91.199997 76.492 169.8241
92.500000 76.450 169.6928
93.800003 76.403 169.5162
95.000000 76.356 169.4746
96.199997 76.328 169.3654
97.500000 76.286 169.2083
98.800003 76.266 169.1884
100.000000 76.247 168.8728
101.500000 76.166 168.8773
103.000000 76.141 168.9102
104.400002 76.107 168.7327
106.000000 76.047 168.6293
107.500000 76.015 168.4920
109.000000 75.973 168.4001
110.599998 75.931 168.4299
112.000000 75.917 168.4200
113.800003 75.873 168.3529
115.000000 75.853 168.2590
117.199997 75.801 168.2043
118.000000 75.782 168.1242
120.599998 75.713 168.0722
122.000000 75.688 167.9752
124.099998 75.630 167.9138
125.000000 75.608 167.9151
126.500000 75.580 167.9193
128.000000 75.551 167.8532
131.500000 75.468 167.7888
132.000000 75.453 167.7609
134.000000 75.406 167.7380
136.000000 75.380 167.7090
138.000000 75.334 167.6188
140.000000 75.289 167.6164
143.000000 75.250 167.6637
145.000000 75.209 167.6477
147.500000 75.111 167.6843
150.000000 75.058 167.7132
152.500000 75.038 167.6348
155.000000 74.971 167.6664
157.500000 74.925 167.7437
160.000000 74.881 167.8691
162.500000 74.836 167.8673
165.000000 74.798 168.1389
167.500000 74.751 168.3317
170.000000 74.728 168.3847
172.500000 74.709 168.4111
175.000000 74.688 168.4384
177.500000 74.656 168.4796
180.000000 74.625 168.3131
182.500000 74.589 168.3221
185.000000 74.545 168.4722
187.500000 74.505 168.4836
190.000000 74.447 168.4282
192.500000 74.419 168.5734
195.000000 74.408 168.9376
197.500000 74.360 168.6635
200.000000 74.283 168.9742
203.000000 74.280 168.8004
206.000000 74.226 168.6980
209.000000 74.163 168.8797
212.000000 74.120 169.2595
214.000000 74.109 169.2584
218.000000 74.009 169.4953
220.000000 74.021 169.3278
224.000000 73.933 170.1297
227.000000 73.899 170.3865
230.000000 73.855 170.4594
233.000000 73.788 170.7854
236.000000 73.742 171.3037
240.000000 73.900 172.4735
243.000000 73.942 172.3007
247.000000 73.964 171.7090
250.000000 73.909 171.8556
254.000000 73.940 171.2814
258.000000 73.893 171.3976
262.000000 73.830 171.3585
265.000000 73.802 171.3354
269.000000 73.776 171.3591
272.000000 73.720 171.4306
276.000000 73.700 171.4357
280.000000 73.623 171.5810
285.000000 73.581 171.8452
290.000000 73.544 171.7908
295.000000 73.482 172.0776
300.000000 73.462 172.2130
304.000000 73.410 172.5693
307.000000 73.426 172.7161
311.000000 73.382 172.8114
315.000000 73.354 172.8507
320.000000 73.305 172.9891
325.000000 73.295 173.2217
330.000000 73.252 173.6381
335.000000 73.201 173.6869
340.000000 73.154 173.7090
345.000000 73.109 173.9209
350.000000 73.080 174.0730
355.000000 73.047 174.3434
360.000000 72.972 174.4085
365.000000 72.992 174.6725
370.000000 72.928 175.0410
375.000000 72.894 175.2495
382.000000 72.840 175.5117
387.000000 72.811 175.7063
395.000000 72.759 176.2266
400.000000 72.743 176.3513
406.000000 72.743 176.5994
412.000000 72.699 177.0005
418.000000 72.674 177.2502
425.000000 72.630 177.4243
431.000000 72.591 177.6928
437.000000 72.550 177.9796
444.000000 72.537 178.2325
450.000000 72.485 178.7097
455.000000 72.453 178.7613
462.000000 72.470 179.1873
468.000000 72.397 179.4332
475.000000 72.376 179.7803
482.000000 72.340 -179.8206
487.000000 72.334 -179.6404
494.000000 72.287 -179.3859
500.000000 72.236 -178.9694
508.000000 72.231 -178.6068
515.000000 72.198 -178.1809
522.000000 72.170 -177.9225
530.000000 72.130 -177.3743
538.000000 72.117 -177.0601
545.000000 72.095 -176.7260
552.000000 72.059 -176.2531
560.000000 72.049 -175.8473
570.000000 72.024 -175.2146
580.000000 72.006 -174.6693
590.000000 71.989 -174.2026
600.000000 71.932 -173.5174
608.000000 71.959 -173.2454
615.000000 71.931 -172.7492
622.000000 71.912 -172.4311
630.000000 71.928 -171.8029
640.000000 71.925 -171.5193
650.000000 71.895 -170.9397
660.000000 71.912 -170.3876
670.000000 71.923 -169.9332
680.000000 71.957 -169.3912
690.000000 71.957 -169.1232
700.000000 72.027 -168.8932
710.000000 72.028 -168.9080
720.000000 72.054 -169.0471
730.000000 72.026 -169.5041
740.000000 71.946 -170.3951
750.000000 71.695 -171.1913
762.000000 71.227 -170.1429
775.000000 70.949 -167.1092
788.000000 70.914 -164.2615
800.000000 70.992 -162.3582
812.000000 71.071 -160.8465
825.000000 71.181 -159.5004
838.000000 71.268 -158.2897
850.000000 71.341 -157.1995
862.000000 71.398 -156.2939
875.000000 71.500 -155.2994
885.000000 71.526 -154.5985
900.000000 71.634 -153.4223
912.000000 71.739 -152.6376
925.000000 71.822 -151.7556
938.000000 71.895 -151.0486
950.000000 71.985 -150.3138
962.000000 72.065 -149.8081
975.000000 72.181 -148.9777
988.000000 72.288 -148.2405
1000.000000 72.368 -148.1066
1015.000000 72.493 -147.0003
1030.000000 72.592 -146.3440
1044.000000 72.723 -145.8182
1060.000000 72.826 -145.1461
1075.000000 72.954 -144.4816
1090.000000 73.079 -143.9601
1106.000000 73.202 -143.4267
1120.000000 73.330 -143.2514
1138.000000 73.456 -142.4870
1150.000000 73.548 -142.1527
1172.000000 73.701 -141.8642
1180.000000 73.790 -141.5250
1206.000000 73.960 -141.1767
1220.000000 74.070 -140.7695
1241.000000 74.227 -140.6055
1250.000000 74.291 -140.4806
1265.000000 74.390 -140.2532
1280.000000 74.491 -140.0824
1315.000000 74.715 -139.5947
1320.000000 74.773 -139.5229
1340.000000 74.862 -139.4315
1360.000000 75.006 -139.0745
1380.000000 75.154 -139.0528
1400.000000 75.240 -138.6156
1430.000000 75.462 -138.4366
1450.000000 75.561 -138.2538
1475.000000 75.737 -138.1936
1500.000000 75.901 -138.1018
1525.000000 76.064 -137.9234
1550.000000 76.245 -137.9085
1575.000000 76.392 -137.6958
1600.000000 76.554 -137.5218
1625.000000 76.738 -137.5956
1650.000000 76.916 -137.5369
1675.000000 77.085 -137.6728
1700.000000 77.259 -137.6589
1725.000000 77.434 -137.7670
1750.000000 77.608 -138.1849
1775.000000 77.785 -138.3654
1800.000000 77.966 -138.7520
1825.000000 78.143 -139.1434
1850.000000 78.346 -139.6042
1875.000000 78.509 -140.1396
1900.000000 78.682 -140.6956
1925.000000 78.850 -141.3530
1950.000000 79.029 -142.0447
1975.000000 79.168 -142.8500
2000.000000 79.286 -143.8288
2030.000000 79.518 -144.7932
2060.000000 79.677 -146.0450
2090.000000 79.838 -147.2850
2120.000000 79.975 -148.7814
2140.000000 80.065 -149.6185
2180.000000 80.201 -151.7404
2200.000000 80.250 -152.6919
2240.000000 80.367 -154.8640
2270.000000 80.398 -156.4455
2300.000000 80.435 -158.0280
2330.000000 80.431 -159.6612
2360.000000 80.426 -161.3388
2400.000000 80.376 -163.3313
2430.000000 80.335 -164.7221
2470.000000 80.239 -166.6143
2500.000000 80.164 -168.0340
2540.000000 80.010 -169.4693
2580.000000 79.859 -171.0390
2620.000000 79.694 -172.2918
2650.000000 79.568 -173.1761
2690.000000 79.376 -174.2003
2720.000000 79.259 -174.8681
2760.000000 79.059 -175.4332
2800.000000 78.859 -176.0677
2850.000000 78.645 -176.6582
2900.000000 78.404 -176.9481
2950.000000 78.184 -177.1516
3000.000000 78.009 -176.6345
3040.000000 77.828 -176.8265
3070.000000 77.694 -176.5957
3110.000000 77.589 -176.0670
3150.000000 77.529 -175.6577
3200.000000 77.446 -175.0234
3250.000000 77.389 -174.7251
3300.000000 77.305 -174.6421
3350.000000 77.246 -174.0746
3400.000000 77.177 -173.8080
3450.000000 77.107 -173.3696
3500.000000 77.050 -172.8453
3550.000000 77.029 -172.2745
3600.000000 76.972 -171.6840
3650.000000 76.986 -171.1168
3700.000000 76.997 -170.3498
3750.000000 76.999 -169.7817
3820.000000 77.056 -168.4763
3870.000000 77.204 -167.6396
3950.000000 77.403 -167.0317
4000.000000 77.536 -166.4731
4060.000000 77.720 -166.5117
4120.000000 77.918 -166.4779
4180.000000 78.141 -166.5352
4250.000000 78.406 -166.9408
4310.000000 78.655 -167.6482
4370.000000 78.919 -168.5462
4440.000000 79.211 -170.1181
4500.000000 79.382 -171.8822
4550.000000 79.544 -173.4690
4620.000000 79.664 -175.4955
4680.000000 79.817 -177.0415
4750.000000 80.018 -179.4568
4820.000000 80.224 177.5028
4870.000000 80.351 174.8338
4940.000000 80.417 170.4155
5000.000000 80.304 166.5168
5080.000000 80.027 161.0601
5150.000000 79.654 156.8016
5220.000000 79.121 153.2803
5300.000000 78.498 149.7482
5380.000000 77.801 147.1523
5450.000000 77.133 145.4437
5520.000000 76.504 144.5962
5600.000000 75.786 144.2552
5700.000000 74.903 144.1432
5800.000000 74.081 145.0263
5900.000000 73.232 146.6155
6000.000000 72.556 148.2761
6080.000000 72.087 150.6847
6150.000000 71.679 152.4210
6220.000000 71.260 154.2275
6300.000000 70.850 156.4428
6400.000000 70.415 159.9638
6500.000000 69.955 163.1813
6600.000000 69.606 166.0080
6700.000000 69.241 170.1392
6800.000000 69.053 173.2513
6900.000000 68.786 177.2430
7000.000000 68.612 -179.0935
7100.000000 68.567 -174.3485
7200.000000 68.579 -170.3283
7300.000000 68.611 -166.4223
7400.000000 68.767 -163.2412
7500.000000 68.891 -159.1240
7620.000000 69.174 -154.5012
7750.000000 69.616 -150.1901
7880.000000 70.127 -146.7070
8000.000000 70.604 -142.9552
8120.000000 71.374 -140.3712
8250.000000 72.266 -137.7656
8380.000000 73.223 -136.1759
8500.000000 74.240 -135.5260
8620.000000 75.449 -136.1227
8750.000000 76.880 -138.5930
8850.000000 78.119 -142.9131
9000.000000 79.972 -154.5211
9120.000000 80.936 -169.4608
9250.000000 80.753 171.0953
9380.000000 79.342 155.0588
9500.000000 77.619 146.3390
9620.000000 75.838 141.9093
9750.000000 74.208 139.8878
9880.000000 72.752 139.9247
10000.000000 71.577 141.0298
10150.000000 70.312 143.6147
10300.000000 69.345 146.9167
10440.000000 68.384 150.0645
10600.000000 67.633 154.7622
10750.000000 66.854 159.1315
10900.000000 66.437 164.4492
11060.000000 66.049 169.6026
11200.000000 65.470 174.8365
11380.000000 65.455 -178.7504
11500.000000 65.368 -175.5569
11720.000000 65.453 -168.3915
11800.000000 65.547 -165.8883
12060.000000 65.979 -157.2963
12200.000000 66.509 -152.4323
12410.000000 67.501 -147.1225
12500.000000 68.196 -145.8763
12650.000000 69.141 -142.9358
12800.000000 70.502 -142.5494
13150.000000 75.373 -156.7188
13200.000000 76.070 -162.7027
13400.000000 76.702 162.4457
13600.000000 73.544 136.6697
13800.000000 69.956 129.6108
14000.000000 67.360 129.6512
14300.000000 64.018 133.4901
14500.000000 62.591 138.5651
14750.000000 61.191 147.5610
15000.000000 59.787 154.1317
15250.000000 58.831 162.4892
15500.000000 58.458 170.4255
15750.000000 58.167 -179.7448
16000.000000 58.130 -177.9074
16250.000000 57.988 -167.2076
16500.000000 58.094 -158.8965
16750.000000 58.613 -156.0910
17000.000000 59.390 -152.4698
17250.000000 60.051 -151.5558
17500.000000 60.873 -154.0298
17750.000000 60.997 -162.1227
18000.000000 60.940 -171.8450
18250.000000 60.549 -173.7625
18500.000000 59.363 178.8855
18750.000000 57.783 173.5053
19000.000000 55.132 174.4930
19250.000000 54.324 171.5015
19500.000000 52.938 174.5926
19750.000000 50.653 174.8430
20000.000000 47.275 178.6562
20300.000000 45.296 162.1096
20600.000000 42.273 168.8346
20900.000000 35.217 -158.3715
21200.000000 30.323 171.4118
21400.000000 29.350 -177.6300
21800.000000 11.341 81.7935
22000.000000 26.330 -110.5049
22400.000000 19.427 -159.2930
22700.000000 16.775 -106.1875
23000.000000 18.020 -90.6328
23300.000000 20.324 157.9375
23600.000000 22.066 -102.3125

