* Measurement data measured by REW V5.20.13
* Source: Microphone (USB Sound Device        ), MICROPHONE (Master Volume), R, volume: 0,250
* Format: 256k Log Swept Sine, 1 sweep at -12,0 dBFS with no timing reference
* Dated: 14:46:39 10-05-2024
* REW Settings:
*  C-weighting compensation: Off
*  Target level: 75.0 dB
* Note: ; 
* Measurement: Doscinco L
* Smoothing: None
* Frequency Step: 1/48 octave
* Start Frequency: 1.000 Hz
*
* Freq(Hz) SPL(dB) Phase(degrees)
1.000000 85.597 121.8284
1.015000 85.415 120.9232
1.030000 85.225 120.0116
1.044000 85.041 119.1545
1.060000 84.821 118.1671
1.075000 84.607 117.2331
1.090000 84.384 116.2907
1.106000 84.136 115.3014
1.120000 83.914 114.5891
1.138000 83.622 113.8921
1.150000 83.423 113.5434
1.172000 83.050 113.0939
1.180000 82.911 112.9782
1.206000 82.448 112.7128
1.220000 82.192 112.6049
1.241000 81.796 112.4300
1.250000 81.623 112.3347
1.265000 81.328 112.1275
1.280000 81.027 111.8369
1.315000 80.296 110.6848
1.320000 80.188 110.4517
1.340000 79.749 109.3082
1.360000 79.295 107.7803
1.380000 78.826 105.8049
1.400000 78.343 103.3191
1.430000 77.589 98.4956
1.450000 77.065 94.4583
1.475000 76.377 88.3366
1.500000 75.566 80.6663
1.525000 74.637 71.5735
1.550000 73.615 61.2905
1.575000 72.531 50.0497
1.600000 71.411 38.0838
1.625000 70.284 25.6251
1.650000 69.177 12.9062
1.675000 68.118 0.1595
1.700000 67.135 -12.3825
1.725000 66.256 -24.4873
1.750000 65.509 -35.9224
1.775000 64.922 -46.4555
1.800000 64.522 -55.8539
1.825000 64.338 -63.8853
1.850000 64.400 -70.5529
1.875000 64.710 -76.3469
1.900000 65.238 -81.3687
1.925000 65.949 -85.6988
1.950000 66.811 -89.4176
1.975000 67.791 -92.6057
2.000000 68.857 -95.3435
2.030000 70.202 -98.1477
2.060000 71.565 -100.5583
2.090000 72.890 -102.7145
2.120000 74.120 -104.7551
2.140000 74.859 -106.1201
2.180000 76.066 -109.0461
2.200000 76.502 -110.6868
2.240000 77.171 -113.7881
2.270000 77.558 -115.7984
2.300000 77.859 -117.5729
2.330000 78.086 -119.1431
2.360000 78.250 -120.5404
2.400000 78.389 -122.1887
2.430000 78.449 -123.3046
2.470000 78.492 -124.6918
2.500000 78.510 -125.6974
2.540000 78.537 -127.0514
2.580000 78.583 -128.4776
2.620000 78.593 -129.9146
2.650000 78.568 -130.9671
2.690000 78.497 -132.3080
2.720000 78.419 -133.2473
2.760000 78.288 -134.3827
2.800000 78.130 -135.3515
2.850000 77.904 -136.2739
2.900000 77.658 -136.8104
2.950000 77.395 -136.9073
3.000000 77.055 -136.6602
3.040000 76.736 -136.2324
3.070000 76.479 -135.7751
3.110000 76.128 -134.9809
3.150000 75.782 -133.9728
3.200000 75.383 -132.4067
3.250000 75.051 -130.4945
3.300000 74.821 -128.2276
3.350000 74.671 -125.2817
3.400000 74.573 -121.6193
3.450000 74.525 -117.5154
3.500000 74.528 -113.2451
3.550000 74.580 -109.0835
3.600000 74.682 -105.3055
3.650000 74.831 -102.1862
3.700000 75.048 -99.8037
3.750000 75.359 -97.8091
3.820000 75.905 -95.5923
3.870000 76.333 -94.3861
3.950000 77.006 -93.0410
4.000000 77.374 -92.5271
4.060000 77.731 -92.2513
4.120000 78.053 -92.5354
4.180000 78.347 -93.2789
4.250000 78.648 -94.5339
4.310000 78.865 -95.7761
4.370000 79.041 -97.0192
4.440000 79.186 -98.4100
4.500000 79.262 -99.7757
4.550000 79.294 -101.0022
4.620000 79.295 -102.7690
4.680000 79.262 -104.2505
4.750000 79.188 -105.8377
4.820000 79.071 -107.2904
4.870000 78.953 -108.3282
4.940000 78.752 -109.7206
5.000000 78.555 -110.8008
5.080000 78.271 -111.9829
5.150000 78.015 -112.6932
5.220000 77.721 -113.1413
5.300000 77.351 -113.3749
5.380000 76.981 -113.3258
5.450000 76.686 -113.0627
5.520000 76.439 -112.5822
5.600000 76.184 -111.5753
5.700000 75.908 -109.8982
5.800000 75.707 -108.2351
5.900000 75.614 -107.0175
6.000000 75.643 -105.9439
6.080000 75.724 -105.2563
6.150000 75.812 -104.8990
6.220000 75.897 -104.8679
6.300000 75.999 -105.2875
6.400000 76.158 -106.3612
6.500000 76.316 -107.8827
6.600000 76.432 -109.6802
6.700000 76.505 -111.8564
6.800000 76.549 -114.3927
6.900000 76.561 -117.0496
7.000000 76.537 -119.6339
7.100000 76.471 -122.3144
7.200000 76.375 -124.9930
7.300000 76.266 -127.4868
7.400000 76.145 -129.7081
7.500000 76.001 -131.7621
7.620000 75.832 -133.9258
7.750000 75.694 -135.7725
7.880000 75.584 -137.0741
8.000000 75.528 -137.9785
8.120000 75.545 -138.7292
8.250000 75.642 -139.2424
8.380000 75.795 -139.7134
8.500000 75.979 -140.3288
8.620000 76.216 -141.0234
8.750000 76.488 -141.8937
8.850000 76.686 -142.6863
9.000000 76.989 -144.0825
9.120000 77.215 -145.2428
9.250000 77.424 -146.4657
9.380000 77.605 -147.7029
9.500000 77.750 -148.7362
9.620000 77.872 -149.6017
9.750000 77.977 -150.3989
9.880000 78.072 -151.0177
10.000000 78.153 -151.3966
10.150000 78.245 -151.6516
10.300000 78.342 -151.7675
10.440000 78.440 -151.7243
10.600000 78.555 -151.6002
10.750000 78.667 -151.4974
10.900000 78.779 -151.3822
11.060000 78.887 -151.3011
11.200000 78.972 -151.2670
11.380000 79.064 -151.2281
11.500000 79.110 -151.2018
11.720000 79.174 -151.1340
11.800000 79.191 -151.0904
12.060000 79.226 -150.9087
12.200000 79.239 -150.8055
12.410000 79.249 -150.6589
12.500000 79.251 -150.6252
12.650000 79.250 -150.5999
12.800000 79.241 -150.6211
13.150000 79.182 -150.8816
13.200000 79.170 -150.9312
13.400000 79.106 -151.1649
13.600000 79.031 -151.4114
13.800000 78.948 -151.6485
14.000000 78.869 -151.9058
14.300000 78.768 -152.3646
14.500000 78.717 -152.7976
14.750000 78.665 -153.5327
15.000000 78.621 -154.4948
15.250000 78.573 -155.6339
15.500000 78.522 -156.8360
15.750000 78.472 -158.0330
16.000000 78.434 -159.1328
16.250000 78.423 -160.1447
16.500000 78.442 -161.0903
16.750000 78.493 -162.0227
17.000000 78.564 -162.9728
17.250000 78.646 -163.9249
17.500000 78.728 -164.8508
17.750000 78.806 -165.6736
18.000000 78.880 -166.3670
18.250000 78.953 -166.9028
18.500000 79.029 -167.3042
18.750000 79.106 -167.6033
19.000000 79.183 -167.8297
19.250000 79.254 -168.0130
19.500000 79.316 -168.1521
19.750000 79.366 -168.2477
20.000000 79.405 -168.2961
20.299999 79.439 -168.3133
20.600000 79.461 -168.3161
20.900000 79.469 -168.3392
21.200001 79.460 -168.4012
21.400000 79.444 -168.4575
21.799999 79.394 -168.5894
22.000000 79.363 -168.6659
22.400000 79.302 -168.8701
22.700001 79.259 -169.1206
23.000000 79.218 -169.4951
23.299999 79.174 -169.9849
23.600000 79.128 -170.5524
24.000000 79.066 -171.3599
24.299999 79.029 -171.9694
24.700001 78.999 -172.7913
25.000000 78.994 -173.4298
25.400000 79.001 -174.3027
25.799999 79.019 -175.1372
26.200001 79.048 -175.8641
26.500000 79.078 -176.3299
26.900000 79.129 -176.8715
27.200001 79.171 -177.2389
27.600000 79.221 -177.6793
28.000000 79.260 -178.0367
28.500000 79.293 -178.3450
29.000000 79.312 -178.5466
29.500000 79.315 -178.7085
30.000000 79.304 -178.8693
30.400000 79.286 -179.0259
30.700001 79.270 -179.1814
31.100000 79.242 -179.4558
31.500000 79.206 -179.7938
32.000000 79.155 179.7426
32.500000 79.111 179.2469
33.000000 79.082 178.6711
33.500000 79.059 178.0075
34.000000 79.038 177.3416
34.500000 79.026 176.7533
35.000000 79.028 176.2318
35.500000 79.040 175.7354
36.000000 79.051 175.2766
36.500000 79.058 174.8917
37.000000 79.064 174.5764
37.500000 79.067 174.2969
38.200001 79.060 173.9304
38.700001 79.049 173.6694
39.500000 79.019 173.2048
40.000000 78.995 172.8901
40.599998 78.966 172.4853
41.200001 78.939 172.0151
41.799999 78.908 171.5135
42.500000 78.873 170.9959
43.099998 78.858 170.5807
43.700001 78.849 170.1176
44.400002 78.827 169.5886
45.000000 78.807 169.2256
45.500000 78.795 168.9488
46.200001 78.779 168.5255
46.799999 78.756 168.1618
47.500000 78.729 167.7917
48.200001 78.712 167.3879
48.700001 78.697 167.0347
49.400002 78.660 166.5472
50.000000 78.627 166.2356
50.799999 78.603 165.8570
51.500000 78.581 165.4382
52.200001 78.546 165.0502
53.000000 78.507 164.6846
53.799999 78.470 164.2858
54.500000 78.433 163.9391
55.200001 78.400 163.5801
56.000000 78.361 163.1278
57.000000 78.319 162.5922
58.000000 78.283 162.0021
59.000000 78.238 161.5408
60.000000 78.215 161.1498
60.799999 78.186 160.7311
61.500000 78.141 160.4261
62.200001 78.100 160.2054
63.000000 78.063 159.8630
64.000000 77.990 159.3788
65.000000 77.940 159.0583
66.000000 77.908 158.4729
67.000000 77.844 158.0149
68.000000 77.826 157.6708
69.000000 77.785 157.0420
70.000000 77.706 156.7154
71.000000 77.663 156.4647
72.000000 77.607 156.0699
73.000000 77.556 155.7551
74.000000 77.504 155.3011
75.000000 77.438 154.9945
76.199997 77.387 154.6072
77.500000 77.306 154.2487
78.800003 77.253 153.8536
80.000000 77.169 153.3481
81.199997 77.066 153.0504
82.500000 77.010 152.9077
83.800003 76.955 152.3550
85.000000 76.888 152.0220
86.199997 76.812 151.6695
87.500000 76.754 151.4631
88.500000 76.699 151.1562
90.000000 76.626 150.8347
91.199997 76.533 150.5787
92.500000 76.484 150.4266
93.800003 76.385 149.9905
95.000000 76.319 149.8169
96.199997 76.229 149.4285
97.500000 76.153 149.2913
98.800003 76.070 149.1954
100.000000 76.051 149.1891
101.500000 75.959 148.9431
103.000000 75.891 149.0319
104.400002 75.852 148.8625
106.000000 75.766 148.4795
107.500000 75.703 148.1064
109.000000 75.621 147.7748
110.599998 75.530 147.5216
112.000000 75.448 147.3913
113.800003 75.373 147.4253
115.000000 75.309 147.3854
117.199997 75.265 147.4680
118.000000 75.235 147.3344
120.599998 75.151 147.0457
122.000000 75.101 146.5989
124.099998 75.020 146.1941
125.000000 74.972 145.8979
126.500000 74.883 145.6417
128.000000 74.798 145.5264
131.500000 74.629 144.9689
132.000000 74.598 144.8878
134.000000 74.494 144.8125
136.000000 74.370 144.6034
138.000000 74.275 144.4993
140.000000 74.168 144.4016
143.000000 74.010 144.2438
145.000000 73.906 144.1363
147.500000 73.798 144.1783
150.000000 73.671 144.1414
152.500000 73.530 143.9680
155.000000 73.414 143.8866
157.500000 73.313 143.9392
160.000000 73.196 144.0801
162.500000 73.081 144.1887
165.000000 72.976 144.2654
167.500000 72.845 144.2134
170.000000 72.735 144.3578
172.500000 72.623 144.5051
175.000000 72.534 144.6999
177.500000 72.424 144.7982
180.000000 72.304 144.9501
182.500000 72.209 145.1242
185.000000 72.117 145.2785
187.500000 72.021 145.4952
190.000000 71.921 145.7935
192.500000 71.823 145.9789
195.000000 71.720 146.2331
197.500000 71.648 146.3224
200.000000 71.533 146.6405
203.000000 71.483 146.9243
206.000000 71.374 147.3624
209.000000 71.278 147.5345
212.000000 71.183 147.8778
214.000000 71.106 148.1443
218.000000 71.000 148.6640
220.000000 70.928 148.7056
224.000000 70.813 149.1753
227.000000 70.746 149.7007
230.000000 70.660 149.9905
233.000000 70.571 150.4164
236.000000 70.516 150.7301
240.000000 70.412 151.3511
243.000000 70.357 151.6962
247.000000 70.256 152.0759
250.000000 70.220 152.7202
254.000000 70.119 153.1009
258.000000 70.046 153.6349
262.000000 69.974 153.9653
265.000000 69.946 154.5253
269.000000 69.847 154.9555
272.000000 69.799 155.3359
276.000000 69.761 156.0204
280.000000 69.704 156.3549
285.000000 69.644 157.0367
290.000000 69.583 157.5810
295.000000 69.506 157.9435
300.000000 69.458 158.6274
304.000000 69.385 158.9409
307.000000 69.354 159.4291
311.000000 69.334 159.8799
315.000000 69.285 160.5242
320.000000 69.212 160.7856
325.000000 69.179 161.4353
330.000000 69.133 161.9716
335.000000 69.087 162.3648
340.000000 69.061 162.8875
345.000000 69.028 163.5209
350.000000 68.965 163.8141
355.000000 68.958 164.4090
360.000000 68.887 165.0715
365.000000 68.876 165.2451
370.000000 68.862 165.7607
375.000000 68.801 166.2462
382.000000 68.743 166.8236
387.000000 68.770 167.1187
395.000000 68.704 167.8367
400.000000 68.650 168.1460
406.000000 68.641 168.7729
412.000000 68.615 169.0976
418.000000 68.549 169.6836
425.000000 68.534 170.1542
431.000000 68.457 170.7130
437.000000 68.487 171.0568
444.000000 68.429 171.3246
450.000000 68.412 171.8510
455.000000 68.393 172.2307
462.000000 68.341 172.7111
468.000000 68.322 173.0639
475.000000 68.256 174.0082
482.000000 68.234 174.7791
487.000000 68.283 174.9849
494.000000 68.248 175.3861
500.000000 68.226 175.6062
508.000000 68.216 176.2003
515.000000 68.201 176.5590
522.000000 68.153 177.3743
530.000000 68.106 177.6353
538.000000 68.059 178.1066
545.000000 68.052 178.5573
552.000000 68.034 179.1735
560.000000 67.970 179.8026
570.000000 67.940 -179.6304
580.000000 67.922 -178.7671
590.000000 67.880 -178.0496
600.000000 67.871 -177.3696
608.000000 67.857 -176.2768
615.000000 67.891 -175.9147
622.000000 67.889 -175.4844
630.000000 67.858 -175.0326
640.000000 67.832 -174.6656
650.000000 67.811 -174.1237
660.000000 67.819 -173.2885
670.000000 67.793 -172.6574
680.000000 67.769 -171.9854
690.000000 67.715 -171.1694
700.000000 67.753 -170.4345
710.000000 67.747 -169.9261
720.000000 67.698 -169.1987
730.000000 67.708 -168.5338
740.000000 67.671 -167.4524
750.000000 67.698 -166.9276
762.000000 67.675 -166.0990
775.000000 67.675 -165.3828
788.000000 67.682 -164.0071
800.000000 67.703 -163.3138
812.000000 67.710 -162.6089
825.000000 67.698 -161.3540
838.000000 67.744 -160.2809
850.000000 67.779 -159.5637
862.000000 67.812 -158.4548
875.000000 67.848 -157.6469
885.000000 67.914 -156.8679
900.000000 67.943 -155.9595
912.000000 68.042 -154.9896
925.000000 68.071 -154.0754
938.000000 68.121 -153.1272
950.000000 68.214 -152.7000
962.000000 68.260 -151.8332
975.000000 68.359 -151.0298
988.000000 68.433 -149.9641
1000.000000 68.427 -150.1047
1015.000000 68.633 -148.7672
1030.000000 68.716 -147.7861
1044.000000 68.847 -147.1446
1060.000000 68.953 -146.4844
1075.000000 69.049 -146.0720
1090.000000 69.161 -145.6035
1106.000000 69.257 -145.0719
1120.000000 69.366 -144.5623
1138.000000 69.506 -143.8974
1150.000000 69.585 -143.5298
1172.000000 69.742 -142.8690
1180.000000 69.769 -142.9415
1206.000000 69.927 -142.2541
1220.000000 70.036 -141.9958
1241.000000 70.125 -141.6556
1250.000000 70.192 -141.3976
1265.000000 70.242 -141.3140
1280.000000 70.397 -141.0932
1315.000000 70.514 -140.5127
1320.000000 70.574 -140.2778
1340.000000 70.670 -140.3430
1360.000000 70.769 -139.7589
1380.000000 70.854 -139.4225
1400.000000 70.944 -139.1215
1430.000000 71.097 -138.7919
1450.000000 71.151 -138.3513
1475.000000 71.299 -137.9677
1500.000000 71.405 -137.6804
1525.000000 71.525 -137.2539
1550.000000 71.618 -136.8722
1575.000000 71.740 -136.7958
1600.000000 71.875 -136.1645
1625.000000 71.989 -135.8610
1650.000000 72.123 -135.5596
1675.000000 72.259 -135.1710
1700.000000 72.358 -134.8799
1725.000000 72.478 -134.6070
1750.000000 72.583 -134.4420
1775.000000 72.776 -134.2845
1800.000000 72.894 -134.0380
1825.000000 73.023 -133.9611
1850.000000 73.190 -133.8467
1875.000000 73.318 -133.6456
1900.000000 73.452 -133.6154
1925.000000 73.574 -133.7106
1950.000000 73.713 -133.6211
1975.000000 73.843 -133.8089
2000.000000 73.919 -133.1760
2030.000000 74.126 -133.8988
2060.000000 74.282 -134.1586
2090.000000 74.441 -134.2249
2120.000000 74.580 -134.6920
2140.000000 74.733 -134.9491
2180.000000 74.867 -135.4301
2200.000000 74.960 -135.5445
2240.000000 75.111 -136.0401
2270.000000 75.239 -136.5097
2300.000000 75.334 -136.7785
2330.000000 75.434 -137.1087
2360.000000 75.560 -137.2434
2400.000000 75.764 -137.3228
2430.000000 75.925 -137.7156
2470.000000 76.180 -138.4035
2500.000000 76.376 -139.3918
2540.000000 76.554 -140.8217
2580.000000 76.648 -142.5548
2620.000000 76.756 -143.9704
2650.000000 76.802 -144.8354
2690.000000 76.850 -146.0867
2720.000000 76.845 -147.0837
2760.000000 76.898 -148.2323
2800.000000 76.901 -149.4126
2850.000000 76.928 -150.7693
2900.000000 76.915 -151.9895
2950.000000 76.915 -153.4062
3000.000000 76.894 -155.0364
3040.000000 76.845 -155.4985
3070.000000 76.818 -156.2689
3110.000000 76.780 -157.1508
3150.000000 76.689 -157.9426
3200.000000 76.593 -158.8124
3250.000000 76.521 -159.6201
3300.000000 76.397 -160.4188
3350.000000 76.290 -160.8518
3400.000000 76.158 -161.2932
3450.000000 76.050 -161.4675
3500.000000 75.963 -161.8342
3550.000000 75.843 -161.6433
3600.000000 75.788 -161.7007
3650.000000 75.702 -161.2408
3700.000000 75.670 -161.1244
3750.000000 75.660 -160.9600
3820.000000 75.632 -160.5827
3870.000000 75.623 -160.4408
3950.000000 75.650 -160.2177
4000.000000 75.727 -159.5129
4060.000000 75.651 -159.6790
4120.000000 75.678 -159.0890
4180.000000 75.758 -158.8048
4250.000000 75.899 -158.6820
4310.000000 76.048 -158.6798
4370.000000 76.192 -159.1676
4440.000000 76.336 -159.5928
4500.000000 76.415 -160.2877
4550.000000 76.524 -160.7227
4620.000000 76.612 -161.7681
4680.000000 76.698 -162.5130
4750.000000 76.781 -163.8740
4820.000000 76.825 -165.1623
4870.000000 76.805 -166.3327
4940.000000 76.784 -167.3820
5000.000000 76.697 -169.0672
5080.000000 76.632 -170.2413
5150.000000 76.531 -171.3219
5220.000000 76.366 -172.3368
5300.000000 76.163 -173.2548
5380.000000 75.981 -174.0995
5450.000000 75.801 -174.4418
5520.000000 75.604 -174.4563
5600.000000 75.435 -173.9445
5700.000000 75.253 -173.7578
5800.000000 75.175 -172.7361
5900.000000 75.169 -172.5461
6000.000000 75.337 -172.3539
6080.000000 75.371 -172.7415
6150.000000 75.507 -173.9893
6220.000000 75.498 -175.6185
6300.000000 75.344 -178.0915
6400.000000 74.931 179.4351
6500.000000 74.395 178.5834
6600.000000 73.809 178.9124
6700.000000 73.331 -179.3503
6800.000000 73.047 -177.0272
6900.000000 72.807 -174.3384
7000.000000 72.807 -171.4269
7100.000000 72.858 -168.2775
7200.000000 72.991 -166.3708
7300.000000 73.257 -164.6930
7400.000000 73.551 -163.0921
7500.000000 74.002 -162.8582
7620.000000 74.589 -163.1298
7750.000000 75.172 -165.7642
7880.000000 75.630 -170.3147
8000.000000 75.718 -175.7918
8120.000000 75.601 178.6732
8250.000000 75.124 173.4518
8380.000000 74.519 170.2080
8500.000000 73.906 168.0030
8620.000000 73.342 166.4209
8750.000000 72.744 165.3260
8850.000000 72.216 164.5237
9000.000000 71.454 164.9379
9120.000000 70.847 164.7957
9250.000000 70.280 167.3149
9380.000000 69.728 168.8264
9500.000000 69.424 170.4101
9620.000000 69.040 173.0085
9750.000000 68.761 176.2172
9880.000000 68.571 178.5179
10000.000000 68.465 -178.8236
10150.000000 68.497 -175.5319
10300.000000 68.532 -173.2150
10440.000000 68.789 -171.5392
10600.000000 69.053 -170.1959
10750.000000 69.306 -170.1865
10900.000000 69.498 -170.8087
11060.000000 69.591 -172.2139
11200.000000 69.532 -173.5757
11380.000000 69.267 -175.4968
11500.000000 69.063 -176.0841
11720.000000 68.697 -177.4053
11800.000000 68.444 -177.3980
12060.000000 67.975 -176.6532
12200.000000 67.794 -175.4051
12410.000000 67.393 -173.4964
12500.000000 67.405 -172.2061
12650.000000 67.253 -170.8116
12800.000000 67.311 -169.0502
13150.000000 67.820 -165.8803
13200.000000 67.989 -165.3125
13400.000000 68.836 -165.7845
13600.000000 69.861 -168.9331
13800.000000 70.809 -178.0380
14000.000000 71.280 167.3482
14300.000000 69.541 144.9658
14500.000000 67.437 137.3461
14750.000000 64.758 134.0980
15000.000000 62.693 135.8240
15250.000000 60.845 140.2725
15500.000000 59.946 145.6499
15750.000000 59.045 152.1008
16000.000000 58.218 152.2693
16250.000000 58.304 164.2131
16500.000000 58.090 166.6909
16750.000000 58.093 173.5739
17000.000000 58.623 171.2789
17250.000000 59.725 170.1022
17500.000000 59.873 164.7323
17750.000000 60.187 152.1732
18000.000000 59.347 138.4611
18250.000000 57.129 126.6319
18500.000000 54.745 119.8198
18750.000000 52.493 116.4325
19000.000000 50.928 109.7043
19250.000000 48.581 111.7911
19500.000000 46.042 117.2907
19750.000000 41.886 106.7084
20000.000000 43.802 128.6676
20300.000000 37.391 132.2825
20600.000000 32.377 149.4459
20900.000000 32.059 134.8131
21200.000000 29.883 158.3848
21400.000000 27.756 -144.1266
21800.000000 28.125 -156.2695
22000.000000 18.983 113.5244
22400.000000 22.695 -64.1699
22700.000000 15.313 134.9727
23000.000000 20.272 128.4375
23300.000000 14.186 -76.8516
23600.000000 26.429 9.0859

