* Measurement data measured by REW V5.20.13
* Source: Microphone (USB Sound Device        ), MICROPHONE (Master Volume), R, volume: 0,250
* Format: 256k Log Swept Sine, 1 sweep at -12,0 dBFS with no timing reference
* Dated: 21:43:32 06-04-2024
* REW Settings:
*  C-weighting compensation: Off
*  Target level: 75.0 dB
* Note: ; 
* Measurement: DT600 L
* Smoothing: None
* Frequency Step: 1/48 octave
* Start Frequency: 1.000 Hz
*
* Freq(Hz) SPL(dB) Phase(degrees)
1.000000 83.251 125.9620
1.015000 83.021 125.2988
1.030000 82.778 124.6671
1.044000 82.539 124.1083
1.060000 82.248 123.5089
1.075000 81.959 122.9877
1.090000 81.653 122.5086
1.106000 81.303 122.0224
1.120000 80.960 121.4869
1.138000 80.466 120.6366
1.150000 80.108 119.9865
1.172000 79.400 118.6654
1.180000 79.128 118.1549
1.206000 78.202 116.4405
1.220000 77.683 115.5128
1.241000 76.887 114.1655
1.250000 76.541 113.6177
1.265000 75.964 112.7627
1.280000 75.389 111.9996
1.315000 74.078 110.7052
1.320000 73.897 110.5882
1.340000 73.193 110.3239
1.360000 72.531 110.4259
1.380000 71.922 110.9482
1.400000 71.376 111.9450
1.430000 70.698 114.4481
1.450000 70.354 116.8675
1.475000 70.063 120.8840
1.500000 69.896 126.4530
1.525000 69.837 133.4617
1.550000 69.874 141.6640
1.575000 69.996 150.8137
1.600000 70.191 160.6648
1.625000 70.448 170.9712
1.650000 70.756 -178.5133
1.675000 71.104 -168.0346
1.700000 71.480 -157.8389
1.725000 71.873 -148.1724
1.750000 72.272 -139.2809
1.775000 72.666 -131.4108
1.800000 73.042 -124.8080
1.825000 73.391 -119.7186
1.850000 73.726 -116.1884
1.875000 74.101 -113.7965
1.900000 74.511 -112.4040
1.925000 74.949 -111.8886
1.950000 75.408 -112.1282
1.975000 75.881 -113.0006
2.000000 76.360 -114.3836
2.030000 76.935 -116.5452
2.060000 77.497 -119.0550
2.090000 78.034 -121.7018
2.120000 78.533 -124.2746
2.140000 78.840 -125.8444
2.180000 79.372 -128.3536
2.200000 79.590 -129.1716
2.240000 79.956 -130.6193
2.270000 80.182 -131.7784
2.300000 80.369 -132.9871
2.330000 80.523 -134.2336
2.360000 80.647 -135.5060
2.400000 80.773 -137.2224
2.430000 80.843 -138.5092
2.470000 80.911 -140.2017
2.500000 80.948 -141.4383
2.540000 80.987 -143.0208
2.580000 81.018 -144.5149
2.620000 81.021 -146.0089
2.650000 81.003 -147.1333
2.690000 80.953 -148.6198
2.720000 80.898 -149.7131
2.760000 80.803 -151.1244
2.800000 80.686 -152.4624
2.850000 80.512 -153.9981
2.900000 80.312 -155.3416
2.950000 80.087 -156.4711
3.000000 79.815 -157.5281
3.040000 79.566 -158.3123
3.070000 79.365 -158.8432
3.110000 79.083 -159.4484
3.150000 78.791 -159.9064
3.200000 78.420 -160.2221
3.250000 78.056 -160.1928
3.300000 77.709 -159.7544
3.350000 77.346 -158.8327
3.400000 76.951 -157.4701
3.450000 76.548 -155.7617
3.500000 76.159 -153.8028
3.550000 75.807 -151.6883
3.600000 75.514 -149.5136
3.650000 75.304 -147.3736
3.700000 75.191 -145.1919
3.750000 75.160 -142.6861
3.820000 75.222 -138.9004
3.870000 75.323 -136.2104
3.950000 75.537 -132.3642
4.000000 75.681 -130.4899
4.060000 75.854 -128.9798
4.120000 76.081 -128.0743
4.180000 76.348 -127.6492
4.250000 76.673 -127.6406
4.310000 76.932 -127.9482
4.370000 77.146 -128.4518
4.440000 77.319 -129.2766
4.500000 77.435 -130.3709
4.550000 77.510 -131.5004
4.620000 77.580 -133.2994
4.680000 77.604 -134.9371
4.750000 77.589 -136.8213
4.820000 77.522 -138.6981
4.870000 77.443 -140.1435
4.940000 77.294 -142.2363
5.000000 77.133 -144.0209
5.080000 76.880 -146.2646
5.150000 76.626 -148.0043
5.220000 76.322 -149.6799
5.300000 75.925 -151.4938
5.380000 75.499 -153.0691
5.450000 75.125 -154.1448
5.520000 74.760 -154.8480
5.600000 74.309 -155.2152
5.700000 73.731 -155.1554
5.800000 73.221 -154.6777
5.900000 72.858 -153.8748
6.000000 72.614 -152.3843
6.080000 72.492 -150.9915
6.150000 72.437 -149.9086
6.220000 72.433 -149.1839
6.300000 72.508 -148.7940
6.400000 72.722 -148.6671
6.500000 72.996 -149.0137
6.600000 73.254 -149.9147
6.700000 73.505 -151.5228
6.800000 73.767 -153.7014
6.900000 74.007 -156.1542
7.000000 74.194 -158.6449
7.100000 74.339 -161.3961
7.200000 74.450 -164.2641
7.300000 74.528 -166.9935
7.400000 74.566 -169.4780
7.500000 74.563 -171.8729
7.620000 74.530 -174.4382
7.750000 74.483 -176.5890
7.880000 74.403 -178.1371
8.000000 74.339 -179.1009
8.120000 74.323 -179.6143
8.250000 74.341 -179.5670
8.380000 74.409 -179.2498
8.500000 74.535 -178.9575
8.620000 74.721 -178.5214
8.750000 74.953 -178.1258
8.850000 75.137 -178.0309
9.000000 75.444 -178.1255
9.120000 75.680 -178.3459
9.250000 75.899 -178.7292
9.380000 76.093 -179.2768
9.500000 76.243 -179.7729
9.620000 76.356 179.8051
9.750000 76.444 179.3767
9.880000 76.508 179.0857
10.000000 76.550 178.9930
10.150000 76.577 179.0583
10.300000 76.604 179.2887
10.440000 76.630 179.6875
10.600000 76.662 -179.7717
10.750000 76.704 -179.2699
10.900000 76.751 -178.7565
11.060000 76.795 -178.3064
11.200000 76.830 -177.9919
11.380000 76.858 -177.6587
11.500000 76.863 -177.4873
11.720000 76.848 -177.2218
11.800000 76.834 -177.1201
12.060000 76.768 -176.7999
12.200000 76.727 -176.6273
12.410000 76.658 -176.3925
12.500000 76.628 -176.3314
12.650000 76.579 -176.2692
12.800000 76.526 -176.2830
13.150000 76.379 -176.6845
13.200000 76.354 -176.7711
13.400000 76.242 -177.2032
13.600000 76.120 -177.6828
13.800000 75.986 -178.1766
14.000000 75.860 -178.6675
14.300000 75.698 -179.4187
14.500000 75.623 179.9988
14.750000 75.561 179.0788
15.000000 75.529 177.9115
15.250000 75.507 176.5084
15.500000 75.485 175.0165
15.750000 75.461 173.5353
16.000000 75.441 172.2274
16.250000 75.443 171.1331
16.500000 75.473 170.2377
16.750000 75.541 169.4790
17.000000 75.634 168.7568
17.250000 75.741 168.0532
17.500000 75.846 167.3548
17.750000 75.935 166.7382
18.000000 76.009 166.2439
18.250000 76.068 165.9178
18.500000 76.120 165.7527
18.750000 76.167 165.7051
19.000000 76.211 165.7347
19.250000 76.247 165.7824
19.500000 76.270 165.8424
19.750000 76.277 165.9094
20.000000 76.268 165.9973
20.299999 76.241 166.1178
20.600000 76.202 166.2213
20.900000 76.151 166.2564
21.200001 76.087 166.1775
21.400000 76.034 166.0631
21.799999 75.907 165.7282
22.000000 75.836 165.5263
22.400000 75.694 165.0698
22.700001 75.599 164.6422
23.000000 75.517 164.0880
23.299999 75.443 163.3962
23.600000 75.374 162.6049
24.000000 75.290 161.4948
24.299999 75.241 160.6918
24.700001 75.205 159.6835
25.000000 75.202 158.9479
25.400000 75.219 157.9679
25.799999 75.243 157.0344
26.200001 75.263 156.2481
26.500000 75.276 155.7938
26.900000 75.294 155.3595
27.200001 75.307 155.1305
27.600000 75.318 154.9183
28.000000 75.316 154.7970
28.500000 75.298 154.7371
29.000000 75.263 154.6679
29.500000 75.202 154.4993
30.000000 75.110 154.2558
30.400000 75.023 154.0362
30.700001 74.957 153.8403
31.100000 74.873 153.4889
31.500000 74.789 153.0143
32.000000 74.683 152.3018
32.500000 74.582 151.5514
33.000000 74.501 150.7882
33.500000 74.439 150.0031
34.000000 74.386 149.2605
34.500000 74.344 148.6432
35.000000 74.319 148.1394
35.500000 74.302 147.6849
36.000000 74.278 147.2766
36.500000 74.244 146.9504
37.000000 74.199 146.6967
37.500000 74.145 146.4771
38.200001 74.052 146.2087
38.700001 73.983 146.0055
39.500000 73.867 145.4807
40.000000 73.779 145.0735
40.599998 73.671 144.6260
41.200001 73.580 144.1670
41.799999 73.495 143.6324
42.500000 73.389 143.0963
43.099998 73.316 142.7960
43.700001 73.265 142.4787
44.400002 73.202 142.0136
45.000000 73.133 141.6282
45.500000 73.067 141.3413
46.200001 72.965 141.0081
46.799999 72.883 140.7997
47.500000 72.811 140.4324
48.200001 72.719 139.7584
48.700001 72.612 139.2984
49.400002 72.446 139.1001
50.000000 72.356 139.2343
50.799999 72.309 139.1402
51.500000 72.248 138.7104
52.200001 72.148 138.3536
53.000000 72.031 138.0944
53.799999 71.911 137.8439
54.500000 71.811 137.6739
55.200001 71.726 137.4050
56.000000 71.610 136.9425
57.000000 71.447 136.6398
58.000000 71.335 136.5083
59.000000 71.232 136.2682
60.000000 71.117 136.1616
60.799999 71.039 136.0685
61.500000 70.957 135.8109
62.200001 70.839 135.5629
63.000000 70.697 135.5066
64.000000 70.567 135.5088
65.000000 70.472 135.1926
66.000000 70.331 134.6726
67.000000 70.170 134.6135
68.000000 70.054 134.6680
69.000000 69.933 134.6982
70.000000 69.814 134.7450
71.000000 69.694 134.7107
72.000000 69.561 134.6006
73.000000 69.421 134.6529
74.000000 69.320 134.7565
75.000000 69.224 134.7315
76.199997 69.081 134.7371
77.500000 68.937 135.0878
78.800003 68.802 134.9986
80.000000 68.622 135.1930
81.199997 68.499 135.3798
82.500000 68.341 135.5246
83.800003 68.204 135.8812
85.000000 68.102 136.1334
86.199997 67.967 136.1416
87.500000 67.804 136.5797
88.500000 67.740 136.7513
90.000000 67.563 136.9254
91.199997 67.499 137.4953
92.500000 67.389 137.5169
93.800003 67.258 138.1322
95.000000 67.157 138.3816
96.199997 67.035 138.7074
97.500000 66.905 139.0255
98.800003 66.794 139.3650
100.000000 66.666 139.8759
101.500000 66.604 140.4183
103.000000 66.471 140.9238
104.400002 66.371 141.0802
106.000000 66.237 142.0936
107.500000 66.197 142.3588
109.000000 66.087 142.8792
110.599998 65.983 143.3271
112.000000 65.877 143.9360
113.800003 65.774 144.3862
115.000000 65.699 144.9632
117.199997 65.605 145.8610
118.000000 65.578 146.1673
120.599998 65.414 146.9384
122.000000 65.369 147.6017
124.099998 65.271 148.0221
125.000000 65.223 148.4572
126.500000 65.191 149.0092
128.000000 65.102 149.6393
131.500000 64.990 150.9145
132.000000 64.981 151.1593
134.000000 64.914 151.9309
136.000000 64.856 152.5432
138.000000 64.828 153.5107
140.000000 64.775 154.0886
143.000000 64.712 154.9842
145.000000 64.700 155.7977
147.500000 64.648 156.6651
150.000000 64.582 157.9974
152.500000 64.590 158.3221
155.000000 64.511 158.9969
157.500000 64.502 159.4796
160.000000 64.494 160.3387
162.500000 64.453 161.0653
165.000000 64.440 162.0949
167.500000 64.434 162.4714
170.000000 64.421 163.2639
172.500000 64.407 163.8329
175.000000 64.448 164.5089
177.500000 64.417 165.0320
180.000000 64.399 165.5133
182.500000 64.380 165.6414
185.000000 64.423 166.5965
187.500000 64.434 166.8851
190.000000 64.439 167.5196
192.500000 64.437 167.9827
195.000000 64.448 168.3074
197.500000 64.508 168.9125
200.000000 64.563 168.9187
203.000000 64.512 169.9131
206.000000 64.557 170.2323
209.000000 64.573 170.8496
212.000000 64.511 171.1747
214.000000 64.574 171.4189
218.000000 64.577 171.8313
220.000000 64.555 171.9765
224.000000 64.597 172.7414
227.000000 64.620 172.9709
230.000000 64.619 173.3809
233.000000 64.649 173.8375
236.000000 64.671 174.0565
240.000000 64.662 174.3178
243.000000 64.696 174.8341
247.000000 64.744 174.7559
250.000000 64.659 174.7275
254.000000 64.760 175.4828
258.000000 64.784 175.5359
262.000000 64.818 175.8281
265.000000 64.783 175.7610
269.000000 64.784 176.2345
272.000000 64.777 176.5928
276.000000 64.806 177.0501
280.000000 64.796 177.2762
285.000000 64.785 177.5475
290.000000 64.889 177.6342
295.000000 64.890 178.3283
300.000000 64.830 178.2026
304.000000 64.864 178.7266
307.000000 64.866 178.7507
311.000000 64.853 178.8933
315.000000 64.854 179.3045
320.000000 64.896 179.7337
325.000000 64.868 179.9041
330.000000 64.909 179.9994
335.000000 64.871 -179.8243
340.000000 64.939 -179.3779
345.000000 64.909 -178.9994
350.000000 64.879 -179.1096
355.000000 64.885 -178.6081
360.000000 64.900 -178.3714
365.000000 64.944 -178.0027
370.000000 64.920 -177.9781
375.000000 64.861 -177.8202
382.000000 64.894 -177.5559
387.000000 64.912 -177.1995
395.000000 64.939 -176.8698
400.000000 64.879 -176.4639
406.000000 64.882 -176.3710
412.000000 64.910 -176.2091
418.000000 64.919 -175.9470
425.000000 64.931 -175.2831
431.000000 64.896 -175.1208
437.000000 64.906 -174.9227
444.000000 64.904 -174.4051
450.000000 64.873 -174.0406
455.000000 64.913 -174.0209
462.000000 64.879 -173.5846
468.000000 64.891 -173.4092
475.000000 64.909 -172.9211
482.000000 64.881 -172.5659
487.000000 64.885 -172.2680
494.000000 64.943 -172.2563
500.000000 64.949 -172.0458
508.000000 64.952 -171.8121
515.000000 64.919 -171.4668
522.000000 64.936 -171.3198
530.000000 64.929 -170.9429
538.000000 64.943 -170.8762
545.000000 64.893 -170.2581
552.000000 64.896 -169.8324
560.000000 64.875 -169.5744
570.000000 64.954 -168.8974
580.000000 64.885 -168.5821
590.000000 64.873 -168.2646
600.000000 64.862 -167.7755
608.000000 64.894 -167.2535
615.000000 64.858 -166.8583
622.000000 64.890 -166.8505
630.000000 64.873 -166.0758
640.000000 64.852 -165.7525
650.000000 64.890 -164.9703
660.000000 64.890 -164.6926
670.000000 64.905 -164.0779
680.000000 64.945 -163.6990
690.000000 64.935 -163.3672
700.000000 64.849 -162.3868
710.000000 64.975 -162.2937
720.000000 64.940 -161.6506
730.000000 64.954 -161.1120
740.000000 64.950 -160.4201
750.000000 64.996 -159.8618
762.000000 65.021 -158.9385
775.000000 65.026 -158.3587
788.000000 65.107 -157.7020
800.000000 65.100 -157.1453
812.000000 65.190 -156.2878
825.000000 65.189 -155.6824
838.000000 65.278 -154.9442
850.000000 65.293 -154.1900
862.000000 65.376 -153.5063
875.000000 65.462 -152.9442
885.000000 65.498 -152.2602
900.000000 65.524 -151.3906
912.000000 65.617 -151.0736
925.000000 65.688 -150.4413
938.000000 65.826 -149.7751
950.000000 65.880 -149.0163
962.000000 65.972 -148.5839
975.000000 66.045 -148.0793
988.000000 66.115 -147.4181
1000.000000 66.206 -146.1901
1015.000000 66.314 -146.5768
1030.000000 66.482 -146.0297
1044.000000 66.591 -145.7674
1060.000000 66.682 -145.3452
1075.000000 66.861 -145.0695
1090.000000 66.932 -144.9554
1106.000000 67.101 -144.2549
1120.000000 67.215 -144.5081
1138.000000 67.323 -144.0891
1150.000000 67.446 -143.8029
1172.000000 67.586 -143.5030
1180.000000 67.637 -143.8729
1206.000000 67.873 -143.5288
1220.000000 67.929 -143.7627
1241.000000 68.061 -143.8548
1250.000000 68.129 -143.8545
1265.000000 68.234 -143.9338
1280.000000 68.314 -143.9270
1315.000000 68.490 -144.3350
1320.000000 68.505 -144.3073
1340.000000 68.627 -144.6372
1360.000000 68.731 -144.9850
1380.000000 68.760 -144.9685
1400.000000 68.852 -145.1924
1430.000000 68.941 -145.5016
1450.000000 68.988 -145.6908
1475.000000 69.063 -146.3965
1500.000000 69.104 -146.7801
1525.000000 69.113 -147.1114
1550.000000 69.108 -147.3615
1575.000000 69.049 -147.5516
1600.000000 69.002 -148.0638
1625.000000 68.872 -147.4650
1650.000000 68.761 -146.4295
1675.000000 68.693 -145.3962
1700.000000 68.597 -143.6212
1725.000000 68.603 -141.9206
1750.000000 68.741 -140.2383
1775.000000 68.901 -138.4882
1800.000000 69.124 -137.0120
1825.000000 69.439 -136.0236
1850.000000 69.704 -134.9832
1875.000000 70.055 -134.5347
1900.000000 70.376 -134.5132
1925.000000 70.625 -134.4324
1950.000000 70.886 -134.5301
1975.000000 71.142 -134.6154
2000.000000 71.366 -135.6120
2030.000000 71.729 -135.3657
2060.000000 71.991 -136.4901
2090.000000 72.293 -137.3040
2120.000000 72.563 -138.3035
2140.000000 72.753 -138.8530
2180.000000 73.092 -140.5170
2200.000000 73.228 -141.3840
2240.000000 73.552 -143.4030
2270.000000 73.753 -144.9178
2300.000000 73.939 -146.8918
2330.000000 74.098 -148.6667
2360.000000 74.227 -150.9127
2400.000000 74.344 -153.6780
2430.000000 74.385 -156.0093
2470.000000 74.378 -159.3005
2500.000000 74.297 -161.3948
2540.000000 74.133 -164.4090
2580.000000 73.845 -166.8389
2620.000000 73.487 -168.6218
2650.000000 73.223 -169.3722
2690.000000 72.876 -169.5117
2720.000000 72.711 -169.3882
2760.000000 72.561 -168.8228
2800.000000 72.445 -168.1857
2850.000000 72.457 -167.9837
2900.000000 72.440 -168.4029
2950.000000 72.487 -168.8243
3000.000000 72.584 -170.3596
3040.000000 72.567 -170.8358
3070.000000 72.575 -171.9312
3110.000000 72.458 -173.2846
3150.000000 72.341 -174.5872
3200.000000 72.180 -176.0114
3250.000000 71.877 -177.5049
3300.000000 71.579 -177.9626
3350.000000 71.200 -177.8000
3400.000000 70.965 -177.1210
3450.000000 70.748 -175.6936
3500.000000 70.594 -174.9179
3550.000000 70.569 -174.2731
3600.000000 70.527 -173.5130
3650.000000 70.507 -172.8799
3700.000000 70.443 -172.5325
3750.000000 70.359 -171.8687
3820.000000 70.419 -170.4972
3870.000000 70.478 -169.9958
3950.000000 70.488 -169.0655
4000.000000 70.439 -169.3000
4060.000000 70.687 -168.5260
4120.000000 70.773 -168.3342
4180.000000 70.888 -168.3499
4250.000000 71.006 -168.4151
4310.000000 71.123 -168.8239
4370.000000 71.228 -169.7771
4440.000000 71.234 -170.5916
4500.000000 71.166 -171.9814
4550.000000 70.751 -170.8458
4620.000000 71.490 -167.5466
4680.000000 71.807 -169.4403
4750.000000 71.984 -171.8760
4820.000000 71.955 -174.4614
4870.000000 71.946 -175.9664
4940.000000 71.869 -177.7470
5000.000000 71.880 -179.6972
5080.000000 71.655 178.0397
5150.000000 71.452 175.8052
5220.000000 71.148 173.9632
5300.000000 70.805 172.6985
5380.000000 70.372 171.6014
5450.000000 70.046 170.9706
5520.000000 69.578 171.0569
5600.000000 69.300 170.9509
5700.000000 68.791 171.7912
5800.000000 68.446 173.5865
5900.000000 68.281 174.8062
6000.000000 68.429 176.3502
6080.000000 68.292 175.9876
6150.000000 68.121 174.1676
6220.000000 67.735 172.5746
6300.000000 67.144 172.4457
6400.000000 66.205 174.3626
6500.000000 65.614 178.7760
6600.000000 65.615 -172.7831
6700.000000 65.926 -171.6419
6800.000000 65.807 -169.3280
6900.000000 65.838 -164.8953
7000.000000 65.921 -163.8164
7100.000000 66.191 -159.2363
7200.000000 66.371 -156.3713
7300.000000 66.759 -154.0688
7400.000000 67.251 -151.0894
7500.000000 68.067 -148.8825
7620.000000 69.391 -146.5791
7750.000000 71.033 -149.5641
7880.000000 72.732 -157.9806
8000.000000 73.791 -172.1989
8120.000000 73.626 171.2879
8250.000000 72.206 156.0600
8380.000000 70.267 147.8489
8500.000000 68.533 145.1065
8620.000000 67.094 144.3271
8750.000000 65.505 145.8244
8850.000000 64.499 147.6661
9000.000000 63.297 152.1848
9120.000000 62.731 155.0424
9250.000000 61.715 159.7446
9380.000000 61.348 164.1642
9500.000000 60.951 169.8774
9620.000000 60.260 174.5580
9750.000000 60.148 -178.8257
9880.000000 60.053 -173.8444
10000.000000 60.623 -170.5419
10150.000000 60.920 -166.1120
10300.000000 61.075 -161.8953
10440.000000 61.230 -158.8505
10600.000000 61.982 -155.2978
10750.000000 62.520 -155.2387
10900.000000 63.523 -156.3546
11060.000000 64.421 -158.1440
11200.000000 64.738 -162.7234
11380.000000 64.767 -171.3452
11500.000000 64.432 -175.9863
11720.000000 63.423 178.5410
11800.000000 62.483 176.5125
12060.000000 61.132 179.0601
12200.000000 60.644 -176.9868
12410.000000 60.212 -174.5642
12500.000000 60.428 -173.0834
12650.000000 60.015 -169.5269
12800.000000 60.374 -167.2098
13150.000000 61.604 -160.5101
13200.000000 61.841 -160.4148
13400.000000 63.007 -164.6310
13600.000000 63.908 -173.0819
13800.000000 64.283 172.9820
14000.000000 63.322 158.5468
14300.000000 60.824 145.0171
14500.000000 58.775 139.3885
14750.000000 56.277 139.7310
15000.000000 55.113 144.6298
15250.000000 53.737 152.5375
15500.000000 51.707 157.4681
15750.000000 52.198 169.5554
16000.000000 49.385 177.5118
16250.000000 50.934 -176.8282
16500.000000 51.839 -174.2336
16750.000000 53.130 -172.6709
17000.000000 53.445 -169.1317
17250.000000 54.661 -170.5616
17500.000000 55.464 -171.0102
17750.000000 55.183 175.8282
18000.000000 55.696 166.0174
18250.000000 54.885 160.3982
18500.000000 55.345 151.0091
18750.000000 54.530 138.8402
19000.000000 52.628 115.7032
19250.000000 47.487 98.7463
19500.000000 44.415 110.8797
19750.000000 40.980 121.8754
20000.000000 33.586 -175.5141
20300.000000 37.134 141.0020
20600.000000 32.206 146.6897
20900.000000 31.217 155.1027
21200.000000 32.601 -166.6832
21400.000000 21.830 -122.5986
21800.000000 24.934 -171.5962
22000.000000 22.594 137.6875
22400.000000 22.650 -19.3301
22700.000000 1.622 -17.7422
23000.000000 15.487 -118.6172
23300.000000 15.037 -105.2461
23600.000000 24.832 80.9141

