* Measurement data measured by REW V5.20.13
* Source: Microphone (USB Sound Device        ), MICROPHONE (Master Volume), R, volume: 0,250
* Format: 256k Log Swept Sine, 1 sweep at -12,0 dBFS with no timing reference
* Dated: 00:01:42 23-02-2024
* REW Settings:
*  C-weighting compensation: Off
*  Target level: 75.0 dB
* Note: ; 
* Measurement: EA1000 500msh HDF R
* Smoothing: None
* Frequency Step: 1/48 octave
* Start Frequency: 1.000 Hz
*
* Freq(Hz) SPL(dB) Phase(degrees)
1.000000 84.616 120.7901
1.015000 84.440 119.8796
1.030000 84.256 118.9650
1.044000 84.078 118.1074
1.060000 83.867 117.1221
1.075000 83.661 116.1931
1.090000 83.447 115.2587
1.106000 83.211 114.2804
1.120000 83.007 113.5730
1.138000 82.750 112.8753
1.150000 82.580 112.5226
1.172000 82.270 112.0607
1.180000 82.156 111.9393
1.206000 81.783 111.6541
1.220000 81.577 111.5360
1.241000 81.258 111.3490
1.250000 81.117 111.2503
1.265000 80.875 111.0406
1.280000 80.623 110.7526
1.315000 79.987 109.6322
1.320000 79.890 109.4071
1.340000 79.485 108.3064
1.360000 79.049 106.8397
1.380000 78.580 104.9469
1.400000 78.073 102.5675
1.430000 77.235 97.9541
1.450000 76.621 94.0942
1.475000 75.770 88.2488
1.500000 74.716 80.9814
1.525000 73.470 72.4109
1.550000 72.073 62.7439
1.575000 70.566 52.1870
1.600000 68.991 40.9470
1.625000 67.389 29.2305
1.650000 65.802 17.2440
1.675000 64.272 5.1943
1.700000 62.839 -6.7121
1.725000 61.546 -18.2685
1.750000 60.433 -29.2681
1.775000 59.542 -39.5045
1.800000 58.915 -48.7710
1.825000 58.594 -56.8610
1.850000 58.616 -63.8060
1.875000 58.975 -70.0990
1.900000 59.627 -75.8119
1.925000 60.527 -80.9944
1.950000 61.631 -85.6965
1.975000 62.895 -89.9681
2.000000 64.274 -93.8591
2.030000 66.019 -98.0961
2.060000 67.790 -101.9432
2.090000 69.510 -105.4866
2.120000 71.102 -108.8124
2.140000 72.055 -110.9515
2.180000 73.598 -115.1567
2.200000 74.143 -117.2717
2.240000 74.960 -121.0752
2.270000 75.417 -123.4542
2.300000 75.759 -125.4861
2.330000 76.002 -127.2238
2.360000 76.160 -128.7203
2.400000 76.267 -130.4319
2.430000 76.290 -131.5715
2.470000 76.273 -132.9994
2.500000 76.246 -134.0704
2.540000 76.220 -135.5992
2.580000 76.229 -137.3379
2.620000 76.207 -139.1755
2.650000 76.159 -140.5651
2.690000 76.053 -142.3881
2.720000 75.943 -143.7023
2.760000 75.758 -145.3389
2.800000 75.529 -146.7921
2.850000 75.185 -148.2651
2.900000 74.778 -149.2546
2.950000 74.298 -149.7133
3.000000 73.654 -150.0599
3.040000 73.040 -150.2184
3.070000 72.544 -150.1992
3.110000 71.862 -149.9051
3.150000 71.187 -149.2078
3.200000 70.402 -147.6095
3.250000 69.743 -145.0120
3.300000 69.274 -141.2063
3.350000 68.954 -135.4676
3.400000 68.724 -127.8682
3.450000 68.586 -119.1209
3.500000 68.542 -109.9387
3.550000 68.592 -101.0342
3.600000 68.739 -93.1203
3.650000 68.983 -86.9098
3.700000 69.365 -82.6955
3.750000 69.942 -79.7153
3.820000 70.969 -77.1617
3.870000 71.774 -76.2099
3.950000 73.016 -75.6197
4.000000 73.666 -75.5078
4.060000 74.245 -75.4553
4.120000 74.709 -76.1014
4.180000 75.088 -77.3501
4.250000 75.438 -79.2661
4.310000 75.671 -81.0424
4.370000 75.854 -82.7030
4.440000 76.009 -84.3862
4.500000 76.070 -85.9417
4.550000 76.076 -87.2806
4.620000 76.025 -89.1161
4.680000 75.936 -90.5564
4.750000 75.792 -91.9562
4.820000 75.593 -93.0851
4.870000 75.403 -93.8314
4.940000 75.089 -94.7039
5.000000 74.796 -95.2094
5.080000 74.398 -95.3970
5.150000 74.067 -94.9748
5.220000 73.698 -93.9435
5.300000 73.249 -92.1805
5.380000 72.834 -90.0080
5.450000 72.548 -87.9464
5.520000 72.374 -85.8337
5.600000 72.294 -82.9001
5.700000 72.323 -78.8653
5.800000 72.449 -75.2748
5.900000 72.637 -72.9502
6.000000 72.952 -71.6406
6.080000 73.252 -71.1482
6.150000 73.505 -71.0717
6.220000 73.715 -71.2843
6.300000 73.903 -71.9756
6.400000 74.105 -73.5524
6.500000 74.254 -75.5822
6.600000 74.334 -77.7033
6.700000 74.334 -80.0097
6.800000 74.267 -82.5506
6.900000 74.150 -85.0699
7.000000 73.994 -87.3562
7.100000 73.776 -89.5677
7.200000 73.522 -91.6361
7.300000 73.268 -93.4138
7.400000 73.023 -94.7939
7.500000 72.763 -95.8419
7.620000 72.485 -96.7739
7.750000 72.297 -97.4654
7.880000 72.206 -97.6649
8.000000 72.205 -97.7947
8.120000 72.297 -98.2322
8.250000 72.514 -98.8767
8.380000 72.790 -99.8065
8.500000 73.054 -101.0702
8.620000 73.354 -102.7039
8.750000 73.677 -104.6724
8.850000 73.898 -106.2305
9.000000 74.207 -108.7785
9.120000 74.429 -110.7701
9.250000 74.636 -112.7145
9.380000 74.812 -114.5298
9.500000 74.960 -115.9872
9.620000 75.100 -117.1618
9.750000 75.238 -118.1662
9.880000 75.381 -118.9451
10.000000 75.526 -119.4486
10.150000 75.716 -119.8162
10.300000 75.923 -120.0954
10.440000 76.135 -120.2592
10.600000 76.383 -120.4116
10.750000 76.613 -120.6143
10.900000 76.840 -120.8348
11.060000 77.061 -121.0809
11.200000 77.237 -121.3146
11.380000 77.441 -121.5681
11.500000 77.561 -121.6927
11.720000 77.755 -121.8405
11.800000 77.821 -121.8603
12.060000 78.013 -121.8345
12.200000 78.110 -121.8085
12.410000 78.245 -121.7627
12.500000 78.297 -121.7649
12.650000 78.377 -121.7940
12.800000 78.447 -121.8475
13.150000 78.558 -122.0635
13.200000 78.569 -122.0941
13.400000 78.599 -122.2112
13.600000 78.619 -122.3164
13.800000 78.633 -122.3971
14.000000 78.649 -122.5206
14.300000 78.681 -122.8322
14.500000 78.706 -123.2046
14.750000 78.731 -123.8600
15.000000 78.743 -124.7160
15.250000 78.737 -125.6846
15.500000 78.722 -126.6773
15.750000 78.706 -127.6522
16.000000 78.706 -128.5789
16.250000 78.731 -129.5150
16.500000 78.781 -130.4926
16.750000 78.854 -131.5643
17.000000 78.936 -132.7121
17.250000 79.022 -133.8962
17.500000 79.105 -135.0571
17.750000 79.188 -136.1148
18.000000 79.274 -137.0524
18.250000 79.368 -137.8538
18.500000 79.471 -138.5547
18.750000 79.581 -139.1810
19.000000 79.694 -139.7564
19.250000 79.803 -140.2902
19.500000 79.906 -140.7720
19.750000 80.001 -141.1958
20.000000 80.087 -141.5555
20.299999 80.181 -141.9233
20.600000 80.265 -142.2470
20.900000 80.336 -142.5540
21.200001 80.391 -142.8566
21.400000 80.419 -143.0510
21.799999 80.457 -143.4193
22.000000 80.470 -143.5995
22.400000 80.491 -143.9872
22.700001 80.502 -144.3424
23.000000 80.509 -144.7771
23.299999 80.509 -145.2813
23.600000 80.504 -145.8327
24.000000 80.494 -146.6102
24.299999 80.491 -147.2192
24.700001 80.499 -148.0805
25.000000 80.512 -148.7685
25.400000 80.536 -149.7211
25.799999 80.568 -150.6632
26.200001 80.610 -151.5562
26.500000 80.648 -152.1911
26.900000 80.706 -152.9954
27.200001 80.751 -153.5600
27.600000 80.808 -154.2383
28.000000 80.865 -154.8130
28.500000 80.935 -155.4167
29.000000 81.000 -155.9714
29.500000 81.048 -156.5018
30.000000 81.077 -156.9758
30.400000 81.092 -157.3209
30.700001 81.101 -157.5844
31.100000 81.109 -157.9736
31.500000 81.110 -158.4106
32.000000 81.101 -158.9955
32.500000 81.090 -159.6020
33.000000 81.083 -160.2479
33.500000 81.079 -160.9418
34.000000 81.078 -161.6500
34.500000 81.083 -162.3384
35.000000 81.094 -163.0016
35.500000 81.109 -163.6323
36.000000 81.128 -164.2112
36.500000 81.149 -164.7383
37.000000 81.171 -165.2386
37.500000 81.188 -165.7204
38.200001 81.201 -166.3320
38.700001 81.205 -166.7293
39.500000 81.206 -167.3797
40.000000 81.199 -167.7980
40.599998 81.186 -168.2883
41.200001 81.175 -168.7746
41.799999 81.168 -169.2758
42.500000 81.165 -169.8880
43.099998 81.163 -170.4323
43.700001 81.161 -170.9657
44.400002 81.159 -171.5535
45.000000 81.157 -172.0461
45.500000 81.151 -172.4390
46.200001 81.141 -172.9264
46.799999 81.137 -173.3251
47.500000 81.129 -173.8315
48.200001 81.112 -174.3022
48.700001 81.105 -174.5994
49.400002 81.105 -175.0749
50.000000 81.097 -175.5642
50.799999 81.066 -176.1429
51.500000 81.044 -176.5254
52.200001 81.031 -176.9255
53.000000 81.005 -177.4106
53.799999 80.974 -177.8040
54.500000 80.956 -178.1393
55.200001 80.935 -178.5353
56.000000 80.901 -178.9500
57.000000 80.874 -179.3860
58.000000 80.854 -179.8638
59.000000 80.838 179.7300
60.000000 80.831 179.3351
60.799999 80.825 179.0397
61.500000 80.821 178.7759
62.200001 80.813 178.4907
63.000000 80.800 178.1738
64.000000 80.788 177.7497
65.000000 80.775 177.2690
66.000000 80.764 176.7623
67.000000 80.752 176.1971
68.000000 80.730 175.6776
69.000000 80.710 175.2071
70.000000 80.682 174.7320
71.000000 80.649 174.3335
72.000000 80.622 173.9046
73.000000 80.581 173.4417
74.000000 80.540 173.0841
75.000000 80.514 172.6843
76.199997 80.467 172.1747
77.500000 80.422 171.7263
78.800003 80.371 171.2752
80.000000 80.331 170.8979
81.199997 80.287 170.5239
82.500000 80.250 170.1158
83.800003 80.197 169.7150
85.000000 80.160 169.4075
86.199997 80.108 169.0412
87.500000 80.057 168.7724
88.500000 80.024 168.5275
90.000000 79.977 168.0990
91.199997 79.930 167.8085
92.500000 79.887 167.5176
93.800003 79.836 167.2768
95.000000 79.794 167.0491
96.199997 79.750 166.8295
97.500000 79.705 166.5384
98.800003 79.659 166.2953
100.000000 79.622 166.0250
101.500000 79.565 165.7941
103.000000 79.523 165.5665
104.400002 79.472 165.3406
106.000000 79.424 165.1640
107.500000 79.384 164.8980
109.000000 79.343 164.6826
110.599998 79.292 164.3964
112.000000 79.258 164.1857
113.800003 79.200 163.9055
115.000000 79.170 163.6966
117.199997 79.102 163.3738
118.000000 79.080 163.2253
120.599998 78.982 162.8602
122.000000 78.940 162.6335
124.099998 78.875 162.3771
125.000000 78.845 162.2617
126.500000 78.795 162.1423
128.000000 78.744 161.9065
131.500000 78.618 161.6125
132.000000 78.604 161.5795
134.000000 78.536 161.3780
136.000000 78.469 161.2980
138.000000 78.408 161.1729
140.000000 78.344 161.0768
143.000000 78.247 160.8868
145.000000 78.187 160.7206
147.500000 78.111 160.7000
150.000000 78.045 160.5549
152.500000 77.975 160.4261
155.000000 77.904 160.3037
157.500000 77.834 160.2580
160.000000 77.772 160.2161
162.500000 77.705 160.0738
165.000000 77.630 160.0150
167.500000 77.569 160.0027
170.000000 77.507 159.9044
172.500000 77.443 159.8670
175.000000 77.384 159.8121
177.500000 77.318 159.8155
180.000000 77.255 159.8225
182.500000 77.192 159.8461
185.000000 77.135 159.7772
187.500000 77.062 159.7797
190.000000 77.009 159.8235
192.500000 76.947 159.8559
195.000000 76.877 159.8888
197.500000 76.825 159.9516
200.000000 76.775 159.8643
203.000000 76.693 160.1016
206.000000 76.627 160.0481
209.000000 76.571 159.9957
212.000000 76.504 160.1888
214.000000 76.466 160.1448
218.000000 76.369 160.3935
220.000000 76.325 160.4202
224.000000 76.248 160.5575
227.000000 76.191 160.6664
230.000000 76.130 160.7324
233.000000 76.058 160.9318
236.000000 76.003 160.9116
240.000000 75.949 161.1495
243.000000 75.891 161.3232
247.000000 75.817 161.4254
250.000000 75.766 161.5876
254.000000 75.696 161.8232
258.000000 75.632 162.0803
262.000000 75.588 162.2607
265.000000 75.525 162.4029
269.000000 75.457 162.5061
272.000000 75.405 162.7174
276.000000 75.343 162.9343
280.000000 75.278 163.1966
285.000000 75.200 163.4694
290.000000 75.129 163.7603
295.000000 75.074 164.0547
300.000000 75.017 164.2816
304.000000 74.965 164.6118
307.000000 74.907 164.8237
311.000000 74.854 164.9156
315.000000 74.824 165.2799
320.000000 74.757 165.6372
325.000000 74.701 165.9341
330.000000 74.648 166.1557
335.000000 74.587 166.6248
340.000000 74.524 166.9868
345.000000 74.485 167.2053
350.000000 74.443 167.5041
355.000000 74.390 167.8380
360.000000 74.340 168.1297
365.000000 74.295 168.6347
370.000000 74.248 168.8277
375.000000 74.204 169.2004
382.000000 74.131 169.6960
387.000000 74.095 169.9849
395.000000 74.030 170.5659
400.000000 73.991 170.8869
406.000000 73.947 171.2669
412.000000 73.917 171.6797
418.000000 73.877 172.1134
425.000000 73.808 172.5509
431.000000 73.785 172.9986
437.000000 73.747 173.4677
444.000000 73.700 174.0017
450.000000 73.669 174.2944
455.000000 73.647 174.6598
462.000000 73.606 175.1379
468.000000 73.560 175.6136
475.000000 73.528 176.1064
482.000000 73.498 176.5434
487.000000 73.469 177.0677
494.000000 73.424 177.3408
500.000000 73.413 177.7581
508.000000 73.376 178.4149
515.000000 73.338 178.9093
522.000000 73.323 179.3057
530.000000 73.297 179.9530
538.000000 73.262 -179.5684
545.000000 73.242 -179.2395
552.000000 73.227 -178.5775
560.000000 73.164 -178.0657
570.000000 73.167 -177.3758
580.000000 73.129 -176.6673
590.000000 73.111 -175.9960
600.000000 73.094 -175.3479
608.000000 73.057 -174.7011
615.000000 73.054 -174.3178
622.000000 73.050 -173.6381
630.000000 73.016 -173.1703
640.000000 73.012 -172.4958
650.000000 73.001 -171.7808
660.000000 72.983 -170.9322
670.000000 72.979 -170.3289
680.000000 72.971 -169.5325
690.000000 72.975 -168.9576
700.000000 72.962 -168.2417
710.000000 72.973 -167.4664
720.000000 72.975 -166.7567
730.000000 72.984 -166.1592
740.000000 72.995 -165.3881
750.000000 73.025 -164.5933
762.000000 73.044 -163.8967
775.000000 73.020 -163.0195
788.000000 73.079 -162.0157
800.000000 73.113 -161.2538
812.000000 73.147 -160.3398
825.000000 73.177 -159.5347
838.000000 73.213 -158.6647
850.000000 73.266 -157.8133
862.000000 73.320 -157.0973
875.000000 73.382 -156.2989
885.000000 73.412 -155.5332
900.000000 73.512 -154.6400
912.000000 73.569 -153.9568
925.000000 73.665 -153.0655
938.000000 73.756 -152.5695
950.000000 73.826 -152.3260
962.000000 73.816 -151.9653
975.000000 73.839 -150.7800
988.000000 73.916 -149.7031
1000.000000 73.988 -149.4019
1015.000000 74.160 -148.3397
1030.000000 74.294 -147.6738
1044.000000 74.415 -147.1461
1060.000000 74.566 -146.6063
1075.000000 74.684 -146.1880
1090.000000 74.820 -145.8640
1106.000000 74.961 -145.6842
1120.000000 75.122 -145.4279
1138.000000 75.274 -145.6657
1150.000000 75.358 -146.0624
1172.000000 75.296 -146.8661
1180.000000 75.228 -146.7775
1206.000000 75.191 -145.0288
1220.000000 75.270 -144.1328
1241.000000 75.401 -143.2348
1250.000000 75.446 -143.1181
1265.000000 75.562 -142.6314
1280.000000 75.651 -142.3632
1315.000000 75.883 -141.7956
1320.000000 75.918 -141.7279
1340.000000 76.023 -141.4159
1360.000000 76.124 -141.0884
1380.000000 76.228 -140.8999
1400.000000 76.323 -140.5827
1430.000000 76.457 -140.3503
1450.000000 76.545 -140.1208
1475.000000 76.656 -139.8216
1500.000000 76.780 -139.6149
1525.000000 76.867 -139.3942
1550.000000 76.991 -139.1601
1575.000000 77.091 -138.7935
1600.000000 77.189 -138.4206
1625.000000 77.321 -138.2789
1650.000000 77.425 -138.1493
1675.000000 77.538 -137.7962
1700.000000 77.647 -137.7216
1725.000000 77.746 -137.3289
1750.000000 77.839 -137.2506
1775.000000 77.969 -137.1644
1800.000000 78.069 -136.8814
1825.000000 78.188 -136.7743
1850.000000 78.299 -136.6301
1875.000000 78.415 -136.4955
1900.000000 78.524 -136.3579
1925.000000 78.639 -136.3262
1950.000000 78.765 -136.2871
1975.000000 78.876 -136.3345
2000.000000 78.981 -135.9938
2030.000000 79.124 -136.2538
2060.000000 79.268 -136.3923
2090.000000 79.409 -136.4733
2120.000000 79.538 -136.5321
2140.000000 79.633 -136.7247
2180.000000 79.787 -136.9994
2200.000000 79.873 -137.0312
2240.000000 80.038 -137.3856
2270.000000 80.159 -137.6537
2300.000000 80.245 -137.8584
2330.000000 80.369 -138.0311
2360.000000 80.468 -138.2096
2400.000000 80.618 -138.2143
2430.000000 80.755 -138.0606
2470.000000 81.002 -138.0979
2500.000000 81.224 -138.5469
2540.000000 81.493 -139.6036
2580.000000 81.692 -140.9885
2620.000000 81.846 -142.4948
2650.000000 81.919 -143.5559
2690.000000 82.007 -144.9470
2720.000000 82.047 -145.8097
2760.000000 82.098 -146.9339
2800.000000 82.137 -148.1343
2850.000000 82.176 -149.3854
2900.000000 82.200 -150.6688
2950.000000 82.224 -152.0031
3000.000000 82.206 -153.2532
3040.000000 82.220 -154.0773
3070.000000 82.213 -154.7096
3110.000000 82.183 -155.5912
3150.000000 82.164 -156.2825
3200.000000 82.120 -157.3029
3250.000000 82.053 -158.1498
3300.000000 82.007 -158.9185
3350.000000 81.946 -159.5809
3400.000000 81.885 -160.2506
3450.000000 81.831 -160.8831
3500.000000 81.761 -161.4655
3550.000000 81.687 -161.8517
3600.000000 81.613 -162.3653
3650.000000 81.534 -162.7229
3700.000000 81.443 -163.1791
3750.000000 81.339 -163.3864
3820.000000 81.183 -163.4057
3870.000000 81.091 -163.2961
3950.000000 80.966 -162.9889
4000.000000 80.896 -162.6629
4060.000000 80.812 -161.9323
4120.000000 80.779 -160.9932
4180.000000 80.789 -160.1958
4250.000000 80.856 -159.3457
4310.000000 80.915 -158.7005
4370.000000 81.026 -158.1248
4440.000000 81.127 -157.6891
4500.000000 81.243 -157.3474
4550.000000 81.363 -157.0912
4620.000000 81.548 -156.8890
4680.000000 81.720 -156.9203
4750.000000 81.925 -157.1117
4820.000000 82.159 -157.5343
4870.000000 82.339 -158.1629
4940.000000 82.593 -159.3127
5000.000000 82.753 -160.6509
5080.000000 82.967 -163.1369
5150.000000 83.041 -165.5641
5220.000000 83.046 -168.1832
5300.000000 82.917 -170.9825
5380.000000 82.688 -173.3342
5450.000000 82.451 -175.0070
5520.000000 82.200 -176.2807
5600.000000 81.879 -177.1266
5700.000000 81.503 -177.7022
5800.000000 81.145 -177.8581
5900.000000 80.813 -177.5792
6000.000000 80.460 -177.1277
6080.000000 80.136 -175.8631
6150.000000 79.858 -173.0677
6220.000000 80.309 -170.2155
6300.000000 80.463 -171.9845
6400.000000 80.347 -172.2665
6500.000000 80.242 -171.9380
6600.000000 80.190 -171.5187
6700.000000 80.152 -170.7840
6800.000000 80.147 -170.2130
6900.000000 80.177 -169.6679
7000.000000 80.226 -169.3046
7100.000000 80.328 -168.8377
7200.000000 80.453 -168.6079
7300.000000 80.575 -168.5468
7400.000000 80.786 -168.8734
7500.000000 80.995 -169.4197
7620.000000 81.312 -170.7807
7750.000000 81.630 -173.4929
7880.000000 81.874 -177.2342
8000.000000 82.007 178.2404
8120.000000 81.892 173.4224
8250.000000 81.551 168.0071
8380.000000 80.984 163.1330
8500.000000 80.338 159.6597
8620.000000 79.602 156.9426
8750.000000 78.751 155.0330
8850.000000 78.087 154.7449
9000.000000 77.137 154.7866
9120.000000 76.438 155.5590
9250.000000 75.727 157.2961
9380.000000 75.076 159.0073
9500.000000 74.549 161.7867
9620.000000 74.044 163.9581
9750.000000 73.593 167.0879
9880.000000 73.248 170.6914
10000.000000 72.924 173.4641
10150.000000 72.571 177.6895
10300.000000 72.308 -178.1391
10440.000000 72.243 -174.0159
10600.000000 72.219 -169.2605
10750.000000 72.192 -165.0749
10900.000000 72.359 -160.6136
11060.000000 72.562 -156.3664
11200.000000 72.895 -152.7818
11380.000000 73.459 -147.6077
11500.000000 73.993 -145.2227
11720.000000 75.101 -141.1048
11800.000000 75.639 -139.8539
12060.000000 77.648 -138.8205
12200.000000 78.990 -141.2234
12410.000000 81.228 -151.4005
12500.000000 81.999 -159.5368
12650.000000 82.544 -176.8116
12800.000000 81.711 165.6330
13150.000000 77.547 145.4684
13200.000000 76.970 144.6501
13400.000000 74.719 143.6774
13600.000000 72.829 146.5444
13800.000000 71.463 152.8455
14000.000000 70.730 157.2731
14300.000000 69.791 164.2589
14500.000000 69.448 169.3715
14750.000000 69.161 173.9458
15000.000000 69.105 178.4781
15250.000000 69.122 -176.2118
15500.000000 69.345 -172.5808
15750.000000 70.174 -169.3336
16000.000000 71.784 -169.6505
16250.000000 72.756 -178.0612
16500.000000 73.213 172.2872
16750.000000 73.153 159.7599
17000.000000 72.344 147.1802
17250.000000 71.070 137.0399
17500.000000 69.419 128.3662
17750.000000 67.781 121.6067
18000.000000 65.515 113.6938
18250.000000 62.813 109.4611
18500.000000 60.288 107.0927
18750.000000 57.023 107.6053
19000.000000 53.769 107.8243
19250.000000 49.839 121.6244
19500.000000 46.370 132.8297
19750.000000 44.923 157.5532
20000.000000 43.999 -171.3089
20300.000000 44.129 176.9891
20600.000000 42.815 170.8953
20900.000000 40.123 -142.7137
21200.000000 29.650 -118.8873
21400.000000 22.265 162.8309
21800.000000 29.165 -48.4344
22000.000000 30.044 -130.0093
22400.000000 17.993 -113.3267
22700.000000 14.378 7.1494
23000.000000 13.813 -76.4883
23300.000000 23.391 2.4922
23600.000000 26.081 -117.1406

