* Measurement data measured by REW V5.20.13
* Source: Microphone (USB Sound Device        ), MICROPHONE (Master Volume), L, volume: 0,250
* Format: 256k Log Swept Sine, 1 sweep at -12,0 dBFS with no timing reference
* Dated: 22:40:06 27-02-2024
* REW Settings:
*  C-weighting compensation: Off
*  Target level: 75.0 dB
* Note: ; 
* Measurement: EA1000 500mesh L
* Smoothing: None
* Frequency Step: 1/48 octave
* Start Frequency: 1.000 Hz
*
* Freq(Hz) SPL(dB) Phase(degrees)
1.000000 76.761 120.5312
1.015000 76.585 119.5729
1.030000 76.403 118.6036
1.044000 76.227 117.6883
1.060000 76.019 116.6286
1.075000 75.816 115.6212
1.090000 75.605 114.5992
1.106000 75.372 113.5089
1.120000 75.165 112.6439
1.138000 74.893 111.6602
1.150000 74.709 111.0717
1.172000 74.365 110.1011
1.180000 74.238 109.7747
1.206000 73.813 108.7716
1.220000 73.579 108.2461
1.241000 73.217 107.4406
1.250000 73.059 107.0794
1.265000 72.790 106.4429
1.280000 72.515 105.7490
1.315000 71.845 103.8145
1.320000 71.747 103.4932
1.340000 71.343 102.0708
1.360000 70.925 100.4003
1.380000 70.493 98.4424
1.400000 70.045 96.1582
1.430000 69.342 92.0348
1.450000 68.852 88.7642
1.475000 68.206 84.0046
1.500000 67.447 78.3521
1.525000 66.580 71.8822
1.550000 65.629 64.7161
1.575000 64.619 56.9748
1.600000 63.576 48.7794
1.625000 62.523 40.2510
1.650000 61.486 31.5107
1.675000 60.490 22.6796
1.700000 59.559 13.8787
1.725000 58.717 5.2293
1.750000 57.991 -3.1478
1.775000 57.404 -11.1313
1.800000 56.982 -18.6001
1.825000 56.749 -25.4333
1.850000 56.731 -31.7021
1.875000 56.924 -37.8005
1.900000 57.303 -43.7367
1.925000 57.839 -49.5002
1.950000 58.506 -55.0806
1.975000 59.274 -60.4674
2.000000 60.118 -65.6502
2.030000 61.190 -71.5855
2.060000 62.283 -77.1940
2.090000 63.348 -82.4575
2.120000 64.339 -87.3581
2.140000 64.934 -90.4147
2.180000 65.905 -95.9983
2.200000 66.253 -98.5141
2.240000 66.794 -102.8283
2.270000 67.118 -105.4524
2.300000 67.380 -107.6210
2.330000 67.585 -109.3958
2.360000 67.742 -110.8385
2.400000 67.887 -112.3521
2.430000 67.956 -113.2599
2.470000 68.009 -114.2844
2.500000 68.029 -114.9934
2.540000 68.041 -115.9768
2.580000 68.044 -117.1112
2.620000 67.987 -118.2437
2.650000 67.902 -119.0323
2.690000 67.744 -119.9607
2.720000 67.599 -120.5360
2.760000 67.379 -121.0997
2.800000 67.142 -121.3828
2.850000 66.841 -121.2622
2.900000 66.557 -120.5187
2.950000 66.304 -119.0288
3.000000 65.996 -116.6086
3.040000 65.715 -114.1076
3.070000 65.498 -111.9782
3.110000 65.217 -108.8933
3.150000 64.963 -105.6335
3.200000 64.715 -101.4884
3.250000 64.581 -97.4758
3.300000 64.600 -93.8176
3.350000 64.795 -90.1624
3.400000 65.135 -86.2794
3.450000 65.583 -82.3467
3.500000 66.099 -78.5426
3.550000 66.645 -75.0451
3.600000 67.182 -72.0325
3.650000 67.673 -69.6829
3.700000 68.116 -68.1183
3.750000 68.575 -67.2241
3.820000 69.228 -66.8471
3.870000 69.684 -67.0263
3.950000 70.364 -67.7307
4.000000 70.737 -68.2297
4.060000 71.117 -68.7665
4.120000 71.441 -69.5759
4.180000 71.717 -70.6279
4.250000 71.986 -72.0262
4.310000 72.177 -73.2551
4.370000 72.339 -74.4048
4.440000 72.489 -75.6021
4.500000 72.571 -76.6603
4.550000 72.612 -77.5426
4.620000 72.636 -78.7216
4.680000 72.635 -79.6273
4.750000 72.618 -80.4929
4.820000 72.580 -81.1405
4.870000 72.528 -81.5119
4.940000 72.433 -81.8988
5.000000 72.344 -82.1003
5.080000 72.232 -82.1709
5.150000 72.158 -82.0294
5.220000 72.085 -81.6201
5.300000 72.004 -80.8981
5.380000 71.943 -80.0399
5.450000 71.917 -79.2880
5.520000 71.929 -78.6103
5.600000 71.987 -77.7515
5.700000 72.108 -76.6423
5.800000 72.262 -75.7358
5.900000 72.431 -75.2650
6.000000 72.640 -75.1579
6.080000 72.821 -75.2852
6.150000 72.976 -75.5381
6.220000 73.115 -75.9120
6.300000 73.257 -76.5268
6.400000 73.423 -77.5854
6.500000 73.568 -78.8268
6.600000 73.681 -80.1021
6.700000 73.759 -81.4585
6.800000 73.807 -82.9102
6.900000 73.835 -84.3343
7.000000 73.847 -85.6266
7.100000 73.834 -86.8497
7.200000 73.807 -87.9926
7.300000 73.782 -89.0134
7.400000 73.765 -89.8733
7.500000 73.747 -90.5866
7.620000 73.738 -91.3217
7.750000 73.768 -92.0402
7.880000 73.833 -92.6145
8.000000 73.919 -93.1334
8.120000 74.031 -93.7575
8.250000 74.187 -94.4969
8.380000 74.359 -95.3313
8.500000 74.519 -96.2305
8.620000 74.688 -97.2492
8.750000 74.869 -98.4166
8.850000 74.997 -99.3293
9.000000 75.179 -100.7695
9.120000 75.315 -101.8989
9.250000 75.450 -103.0384
9.380000 75.572 -104.1244
9.500000 75.682 -105.0437
9.620000 75.790 -105.8566
9.750000 75.903 -106.6354
9.880000 76.018 -107.3327
10.000000 76.131 -107.9016
10.150000 76.276 -108.5189
10.300000 76.426 -109.1021
10.440000 76.572 -109.6113
10.600000 76.741 -110.1733
10.750000 76.895 -110.7093
10.900000 77.048 -111.2411
11.060000 77.201 -111.7961
11.200000 77.328 -112.2747
11.380000 77.481 -112.8572
11.500000 77.576 -113.2191
11.720000 77.740 -113.8365
11.800000 77.796 -114.0448
12.060000 77.970 -114.6739
12.200000 78.059 -115.0018
12.410000 78.185 -115.4820
12.500000 78.235 -115.6922
12.650000 78.316 -116.0472
12.800000 78.390 -116.4048
13.150000 78.537 -117.2463
13.200000 78.556 -117.3640
13.400000 78.624 -117.8258
13.600000 78.686 -118.2774
13.800000 78.745 -118.7156
14.000000 78.803 -119.1685
14.300000 78.889 -119.8929
14.500000 78.946 -120.4352
14.750000 79.011 -121.1781
15.000000 79.071 -121.9879
15.250000 79.121 -122.8295
15.500000 79.168 -123.6724
15.750000 79.213 -124.5026
16.000000 79.263 -125.3133
16.250000 79.321 -126.1270
16.500000 79.386 -126.9548
16.750000 79.457 -127.8136
17.000000 79.530 -128.6922
17.250000 79.602 -129.5741
17.500000 79.672 -130.4355
17.750000 79.742 -131.2490
18.000000 79.813 -132.0116
18.250000 79.886 -132.7209
18.500000 79.963 -133.3937
18.750000 80.042 -134.0390
19.000000 80.121 -134.6646
19.250000 80.196 -135.2695
19.500000 80.267 -135.8460
19.750000 80.333 -136.3891
20.000000 80.395 -136.8935
20.299999 80.465 -137.4556
20.600000 80.529 -137.9816
20.900000 80.589 -138.4855
21.200001 80.643 -138.9770
21.400000 80.676 -139.2998
21.799999 80.735 -139.9405
22.000000 80.762 -140.2643
22.400000 80.810 -140.9359
22.700001 80.841 -141.4719
23.000000 80.866 -142.0348
23.299999 80.885 -142.6083
23.600000 80.900 -143.1758
24.000000 80.918 -143.9090
24.299999 80.937 -144.4504
24.700001 80.969 -145.1931
25.000000 80.998 -145.7847
25.400000 81.036 -146.6172
25.799999 81.071 -147.4574
26.200001 81.102 -148.2527
26.500000 81.127 -148.8038
26.900000 81.164 -149.4836
27.200001 81.196 -149.9670
27.600000 81.243 -150.5944
28.000000 81.289 -151.2103
28.500000 81.341 -151.9574
29.000000 81.384 -152.6630
29.500000 81.419 -153.3181
30.000000 81.448 -153.9325
30.400000 81.468 -154.4137
30.700001 81.480 -154.7774
31.100000 81.494 -155.2688
31.500000 81.503 -155.7610
32.000000 81.511 -156.3674
32.500000 81.521 -156.9758
33.000000 81.533 -157.6154
33.500000 81.543 -158.2898
34.000000 81.550 -158.9633
34.500000 81.555 -159.5957
35.000000 81.565 -160.1805
35.500000 81.580 -160.7397
36.000000 81.600 -161.2974
36.500000 81.620 -161.8605
37.000000 81.636 -162.4178
37.500000 81.647 -162.9507
38.200001 81.658 -163.6462
38.700001 81.664 -164.1249
39.500000 81.666 -164.8837
40.000000 81.664 -165.3370
40.599998 81.662 -165.8594
41.200001 81.664 -166.3970
41.799999 81.665 -166.9682
42.500000 81.660 -167.6312
43.099998 81.655 -168.1560
43.700001 81.655 -168.6606
44.400002 81.657 -169.2655
45.000000 81.653 -169.7777
45.500000 81.648 -170.1706
46.200001 81.646 -170.6963
46.799999 81.643 -171.1763
47.500000 81.628 -171.7250
48.200001 81.612 -172.1893
48.700001 81.608 -172.5179
49.400002 81.601 -173.0458
50.000000 81.585 -173.4874
50.799999 81.567 -173.9730
51.500000 81.564 -174.4286
52.200001 81.554 -174.9525
53.000000 81.532 -175.5014
53.799999 81.514 -176.0139
54.500000 81.495 -176.4772
55.200001 81.473 -176.9030
56.000000 81.452 -177.3579
57.000000 81.428 -177.9561
58.000000 81.401 -178.5084
59.000000 81.379 -179.0614
60.000000 81.349 -179.6051
60.799999 81.325 179.9889
61.500000 81.301 179.6144
62.200001 81.270 179.2571
63.000000 81.236 178.9028
64.000000 81.201 178.4525
65.000000 81.164 177.9771
66.000000 81.124 177.5260
67.000000 81.082 177.1255
68.000000 81.039 176.7949
69.000000 81.002 176.5712
70.000000 80.975 176.3065
71.000000 80.929 176.0726
72.000000 80.902 176.0138
73.000000 80.901 175.8141
74.000000 80.893 175.5336
75.000000 80.894 175.2108
76.199997 80.884 174.7272
77.500000 80.872 174.2490
78.800003 80.852 173.6968
80.000000 80.821 173.2305
81.199997 80.790 172.7721
82.500000 80.749 172.2920
83.800003 80.710 171.8289
85.000000 80.666 171.4101
86.199997 80.626 171.0685
87.500000 80.586 170.6562
88.500000 80.549 170.3711
90.000000 80.501 169.9383
91.199997 80.455 169.6095
92.500000 80.409 169.2884
93.800003 80.364 168.9677
95.000000 80.323 168.6801
96.199997 80.282 168.3704
97.500000 80.230 168.0815
98.800003 80.189 167.8009
100.000000 80.144 167.5562
101.500000 80.102 167.2757
103.000000 80.054 166.9177
104.400002 79.990 166.6638
106.000000 79.949 166.4290
107.500000 79.887 166.1714
109.000000 79.842 165.9202
110.599998 79.789 165.6680
112.000000 79.736 165.3839
113.800003 79.678 165.1341
115.000000 79.635 164.9507
117.199997 79.564 164.6701
118.000000 79.539 164.5829
120.599998 79.453 164.2459
122.000000 79.405 164.0798
124.099998 79.336 163.8809
125.000000 79.308 163.7701
126.500000 79.258 163.6316
128.000000 79.205 163.4424
131.500000 79.099 163.1199
132.000000 79.087 163.0709
134.000000 79.019 162.9244
136.000000 78.952 162.7242
138.000000 78.887 162.6083
140.000000 78.828 162.4359
143.000000 78.730 162.2928
145.000000 78.672 162.1131
147.500000 78.603 162.0409
150.000000 78.525 161.8377
152.500000 78.446 161.8622
155.000000 78.372 161.7386
157.500000 78.296 161.6628
160.000000 78.222 161.6401
162.500000 78.158 161.6166
165.000000 78.089 161.6263
167.500000 78.032 161.5759
170.000000 77.964 161.6158
172.500000 77.911 161.5530
175.000000 77.852 161.5168
177.500000 77.785 161.5103
180.000000 77.725 161.4843
182.500000 77.673 161.4429
185.000000 77.611 161.4067
187.500000 77.540 161.4516
190.000000 77.485 161.4907
192.500000 77.424 161.4760
195.000000 77.356 161.5338
197.500000 77.301 161.5494
200.000000 77.245 161.5755
203.000000 77.180 161.6880
206.000000 77.115 161.7483
209.000000 77.037 161.9248
212.000000 76.976 161.9517
214.000000 76.927 162.0450
218.000000 76.849 162.1659
220.000000 76.801 162.1723
224.000000 76.732 162.3412
227.000000 76.667 162.3253
230.000000 76.604 162.5263
233.000000 76.546 162.7100
236.000000 76.491 162.8581
240.000000 76.428 163.0192
243.000000 76.371 163.1865
247.000000 76.279 163.3732
250.000000 76.232 163.4432
254.000000 76.162 163.6455
258.000000 76.108 163.8698
262.000000 76.046 164.1394
265.000000 75.999 164.3231
269.000000 75.922 164.5554
272.000000 75.887 164.6840
276.000000 75.833 164.8997
280.000000 75.769 165.1082
285.000000 75.680 165.4469
290.000000 75.627 165.7739
295.000000 75.559 166.0591
300.000000 75.483 166.3503
304.000000 75.427 166.6325
307.000000 75.386 166.7949
311.000000 75.342 167.1047
315.000000 75.284 167.3601
320.000000 75.227 167.7028
325.000000 75.153 167.9082
330.000000 75.113 168.3730
335.000000 75.052 168.7130
340.000000 74.994 169.0302
345.000000 74.931 169.4434
350.000000 74.885 169.7407
355.000000 74.850 170.1034
360.000000 74.795 170.5243
365.000000 74.737 170.8501
370.000000 74.695 171.2171
375.000000 74.651 171.6356
382.000000 74.605 172.0460
387.000000 74.549 172.4578
395.000000 74.467 173.0670
400.000000 74.435 173.4794
406.000000 74.398 173.8195
412.000000 74.338 174.2605
418.000000 74.290 174.7182
425.000000 74.245 175.3168
431.000000 74.199 175.7534
437.000000 74.167 176.1514
444.000000 74.106 176.7661
450.000000 74.088 177.2548
455.000000 74.051 177.5374
462.000000 74.026 178.0406
468.000000 73.982 178.6679
475.000000 73.948 179.0585
482.000000 73.905 179.6893
487.000000 73.899 179.9212
494.000000 73.836 -179.5278
500.000000 73.818 -179.0718
508.000000 73.761 -178.4135
515.000000 73.762 -177.8215
522.000000 73.728 -177.2212
530.000000 73.712 -176.7606
538.000000 73.679 -176.0520
545.000000 73.654 -175.6838
552.000000 73.631 -175.1706
560.000000 73.588 -174.3943
570.000000 73.575 -173.7120
580.000000 73.538 -173.0728
590.000000 73.545 -172.3422
600.000000 73.526 -171.5463
608.000000 73.499 -171.1390
615.000000 73.480 -170.4328
622.000000 73.479 -169.9489
630.000000 73.468 -169.3538
640.000000 73.449 -168.5500
650.000000 73.423 -167.9267
660.000000 73.433 -167.1783
670.000000 73.411 -166.5117
680.000000 73.385 -165.8825
690.000000 73.395 -165.1226
700.000000 73.387 -164.2581
710.000000 73.377 -163.4178
720.000000 73.368 -162.8088
730.000000 73.377 -162.1040
740.000000 73.404 -161.1849
750.000000 73.385 -160.4951
762.000000 73.408 -159.6385
775.000000 73.413 -158.6621
788.000000 73.430 -157.6059
800.000000 73.456 -156.7665
812.000000 73.481 -155.8797
825.000000 73.515 -154.8429
838.000000 73.558 -153.9329
850.000000 73.571 -152.9752
862.000000 73.616 -152.1372
875.000000 73.691 -151.1774
885.000000 73.695 -150.4918
900.000000 73.788 -149.3774
912.000000 73.844 -148.6669
925.000000 73.893 -147.7928
938.000000 73.977 -146.8804
950.000000 74.032 -145.9149
962.000000 74.115 -145.0206
975.000000 74.255 -144.3818
988.000000 74.336 -143.8888
1000.000000 74.444 -142.8955
1015.000000 74.508 -142.4648
1030.000000 74.611 -141.7646
1044.000000 74.711 -141.0935
1060.000000 74.818 -140.5057
1075.000000 74.918 -139.8730
1090.000000 75.034 -139.4468
1106.000000 75.162 -138.9241
1120.000000 75.206 -138.6161
1138.000000 75.306 -137.9034
1150.000000 75.406 -137.3733
1172.000000 75.571 -136.7936
1180.000000 75.623 -136.5605
1206.000000 75.780 -135.9547
1220.000000 75.861 -135.8654
1241.000000 76.003 -135.3118
1250.000000 76.031 -135.2126
1265.000000 76.119 -134.8992
1280.000000 76.217 -134.6126
1315.000000 76.387 -134.0885
1320.000000 76.409 -133.9926
1340.000000 76.502 -133.5560
1360.000000 76.589 -133.2490
1380.000000 76.697 -132.9105
1400.000000 76.778 -132.5237
1430.000000 76.921 -132.0254
1450.000000 77.001 -131.8336
1475.000000 77.116 -131.2444
1500.000000 77.211 -130.8838
1525.000000 77.324 -130.5820
1550.000000 77.424 -130.1631
1575.000000 77.528 -129.7238
1600.000000 77.665 -129.2709
1625.000000 77.746 -128.9223
1650.000000 77.876 -128.6071
1675.000000 77.962 -128.2013
1700.000000 78.080 -127.9321
1725.000000 78.197 -127.4899
1750.000000 78.306 -127.1314
1775.000000 78.410 -126.8524
1800.000000 78.523 -126.3612
1825.000000 78.661 -126.1894
1850.000000 78.761 -125.8739
1875.000000 78.892 -125.5312
1900.000000 79.000 -125.2966
1925.000000 79.135 -125.0000
1950.000000 79.261 -124.8134
1975.000000 79.388 -124.5893
2000.000000 79.478 -124.1815
2030.000000 79.672 -124.1420
2060.000000 79.833 -124.0627
2090.000000 79.989 -123.8605
2120.000000 80.162 -123.7478
2140.000000 80.280 -123.7267
2180.000000 80.509 -123.8909
2200.000000 80.606 -123.9612
2240.000000 80.820 -124.3325
2270.000000 80.956 -124.5017
2300.000000 81.082 -124.6544
2330.000000 81.204 -124.8072
2360.000000 81.335 -124.7352
2400.000000 81.562 -124.7618
2430.000000 81.767 -124.8992
2470.000000 82.064 -125.6062
2500.000000 82.246 -126.4508
2540.000000 82.443 -127.7953
2580.000000 82.580 -129.0672
2620.000000 82.709 -130.2942
2650.000000 82.772 -131.0560
2690.000000 82.863 -132.1424
2720.000000 82.921 -132.9457
2760.000000 83.017 -133.9020
2800.000000 83.087 -135.0278
2850.000000 83.159 -136.3438
2900.000000 83.208 -137.6706
2950.000000 83.242 -139.0114
3000.000000 83.229 -140.1577
3040.000000 83.247 -141.3095
3070.000000 83.228 -142.0228
3110.000000 83.199 -142.8929
3150.000000 83.174 -143.7441
3200.000000 83.112 -144.6038
3250.000000 83.055 -145.4431
3300.000000 83.004 -146.2714
3350.000000 82.924 -147.0375
3400.000000 82.858 -147.6084
3450.000000 82.778 -148.1737
3500.000000 82.703 -148.7488
3550.000000 82.624 -149.0593
3600.000000 82.550 -149.5497
3650.000000 82.457 -149.9594
3700.000000 82.354 -150.4140
3750.000000 82.238 -150.5582
3820.000000 82.059 -150.5233
3870.000000 81.951 -150.1448
3950.000000 81.808 -149.6626
4000.000000 81.785 -149.2205
4060.000000 81.685 -148.6733
4120.000000 81.636 -148.0278
4180.000000 81.618 -147.6308
4250.000000 81.552 -147.2245
4310.000000 81.401 -147.1608
4370.000000 80.886 -145.0824
4440.000000 81.712 -138.0999
4500.000000 82.170 -140.4171
4550.000000 82.270 -141.3806
4620.000000 82.356 -142.0402
4680.000000 82.412 -142.3521
4750.000000 82.492 -142.5974
4820.000000 82.572 -142.6726
4870.000000 82.648 -142.8447
4940.000000 82.736 -143.0078
5000.000000 82.825 -143.0591
5080.000000 82.952 -143.5773
5150.000000 83.063 -144.0166
5220.000000 83.161 -144.5515
5300.000000 83.276 -145.2518
5380.000000 83.372 -146.0544
5450.000000 83.457 -146.6975
5520.000000 83.542 -147.7016
5600.000000 83.605 -148.8448
5700.000000 83.666 -150.3178
5800.000000 83.695 -152.0155
5900.000000 83.677 -153.6331
6000.000000 83.628 -155.4805
6080.000000 83.516 -156.9115
6150.000000 83.388 -158.2643
6220.000000 83.224 -159.4224
6300.000000 83.007 -160.3021
6400.000000 82.556 -160.7171
6500.000000 82.233 -157.3177
6600.000000 82.924 -157.0887
6700.000000 82.826 -160.6978
6800.000000 82.508 -161.9344
6900.000000 82.238 -162.0173
7000.000000 82.028 -161.7003
7100.000000 81.935 -160.8377
7200.000000 81.926 -160.0014
7300.000000 81.975 -159.4559
7400.000000 82.126 -159.1681
7500.000000 82.316 -159.3687
7620.000000 82.582 -160.4516
7750.000000 82.891 -162.5677
7880.000000 83.151 -165.7201
8000.000000 83.286 -169.7123
8120.000000 83.276 -174.3934
8250.000000 83.085 -179.8703
8380.000000 82.671 174.8168
8500.000000 82.106 170.3382
8620.000000 81.423 166.6591
8750.000000 80.579 163.7482
8850.000000 79.895 162.4067
9000.000000 78.874 161.3991
9120.000000 78.107 161.5414
9250.000000 77.328 162.1844
9380.000000 76.589 163.7445
9500.000000 75.970 165.5997
9620.000000 75.482 167.7067
9750.000000 74.888 169.8129
9880.000000 74.428 172.7599
10000.000000 74.000 175.3526
10150.000000 73.618 179.0750
10300.000000 73.289 -177.3867
10440.000000 73.026 -173.7593
10600.000000 72.886 -169.6389
10750.000000 72.828 -165.3430
10900.000000 72.833 -161.6697
11060.000000 72.870 -157.2820
11200.000000 73.148 -153.2752
11380.000000 73.530 -149.2857
11500.000000 73.837 -146.4605
11720.000000 74.619 -141.4460
11800.000000 75.060 -140.1760
12060.000000 76.518 -135.7066
12200.000000 77.671 -133.9584
12410.000000 80.030 -137.1534
12500.000000 81.148 -140.1289
12650.000000 83.153 -150.5180
12800.000000 84.707 -169.5728
13150.000000 81.709 142.7141
13200.000000 80.937 139.4568
13400.000000 78.032 133.7389
13600.000000 75.713 134.1713
13800.000000 74.317 137.0385
14000.000000 73.164 139.6516
14300.000000 71.984 143.1681
14500.000000 71.381 145.3711
14750.000000 70.946 147.9229
15000.000000 70.778 150.7828
15250.000000 70.813 153.1562
15500.000000 71.196 154.8176
15750.000000 71.876 153.2234
16000.000000 73.115 148.9716
16250.000000 74.054 140.8539
16500.000000 74.848 126.5966
16750.000000 75.058 107.0352
17000.000000 73.469 86.6953
17250.000000 71.301 74.9019
17500.000000 69.102 66.0901
17750.000000 67.042 60.2314
18000.000000 65.368 55.9299
18250.000000 63.693 51.0353
18500.000000 61.774 44.3122
18750.000000 60.222 39.6070
19000.000000 58.555 34.6015
19250.000000 56.200 28.4195
19500.000000 53.221 27.1890
19750.000000 50.615 28.9371
20000.000000 46.855 32.9519
20300.000000 44.384 50.2534
20600.000000 42.335 43.3085
20900.000000 41.877 28.1656
21200.000000 41.247 30.1446
21400.000000 37.506 28.2866
21800.000000 33.835 -1.1685
22000.000000 15.967 -41.2651
22400.000000 16.513 -80.7231
22700.000000 7.831 -24.0459
23000.000000 18.094 47.6133
23300.000000 18.284 -44.7109
23600.000000 30.247 44.4375

