* Measurement data measured by REW V5.20.13
* Source: Microphone (USB Sound Device        ), MICROPHONE (Master Volume), R, volume: 0,250
* Format: 256k Log Swept Sine, 1 sweep at -12,0 dBFS with no timing reference
* Dated: 01:32:25 23-03-2024
* REW Settings:
*  C-weighting compensation: Off
*  Target level: 75.0 dB
* Note: ; 
* Measurement: EA500LM gold L
* Smoothing: None
* Frequency Step: 1/48 octave
* Start Frequency: 1.000 Hz
*
* Freq(Hz) SPL(dB) Phase(degrees)
1.000000 84.419 120.6398
1.015000 84.238 119.7165
1.030000 84.051 118.7872
1.044000 83.869 117.9139
1.060000 83.653 116.9084
1.075000 83.442 115.9580
1.090000 83.222 114.9997
1.106000 82.979 113.9932
1.120000 82.763 113.2605
1.138000 82.483 112.5298
1.150000 82.294 112.1547
1.172000 81.942 111.6503
1.180000 81.812 111.5130
1.206000 81.380 111.1740
1.220000 81.140 111.0252
1.241000 80.770 110.7897
1.250000 80.608 110.6692
1.265000 80.331 110.4218
1.280000 80.047 110.0939
1.315000 79.350 108.8717
1.320000 79.246 108.6309
1.340000 78.819 107.4645
1.360000 78.373 105.9272
1.380000 77.907 103.9581
1.400000 77.419 101.4965
1.430000 76.643 96.7478
1.450000 76.093 92.7890
1.475000 75.358 86.8057
1.500000 74.476 79.3515
1.525000 73.454 70.5471
1.550000 72.322 60.6104
1.575000 71.114 49.7592
1.600000 69.860 38.2114
1.625000 68.592 26.1849
1.650000 67.343 13.8974
1.675000 66.144 1.5668
1.700000 65.026 -10.5890
1.725000 64.022 -22.3522
1.750000 63.164 -33.5049
1.775000 62.483 -43.8294
1.800000 62.010 -53.1077
1.825000 61.779 -61.1221
1.850000 61.821 -67.8884
1.875000 62.135 -73.8913
1.900000 62.687 -79.2177
1.925000 63.441 -83.9334
1.950000 64.360 -88.1042
1.975000 65.409 -91.7959
2.000000 66.551 -95.0742
2.030000 67.995 -98.5553
2.060000 69.459 -101.6496
2.090000 70.882 -104.4709
2.120000 72.201 -107.1329
2.140000 72.992 -108.8751
2.180000 74.279 -112.4335
2.200000 74.740 -114.3144
2.240000 75.440 -117.7905
2.270000 75.840 -120.0171
2.300000 76.148 -121.9623
2.330000 76.376 -123.6661
2.360000 76.534 -125.1688
2.400000 76.660 -126.9288
2.430000 76.705 -128.1180
2.470000 76.724 -129.6059
2.500000 76.722 -130.7004
2.540000 76.722 -132.2075
2.580000 76.742 -133.8428
2.620000 76.725 -135.5345
2.650000 76.681 -136.7980
2.690000 76.582 -138.4361
2.720000 76.480 -139.6030
2.760000 76.310 -141.0372
2.800000 76.106 -142.2872
2.850000 75.808 -143.5158
2.900000 75.468 -144.2838
2.950000 75.085 -144.5323
3.000000 74.579 -144.5016
3.040000 74.102 -144.2737
3.070000 73.718 -143.9547
3.110000 73.191 -143.2957
3.150000 72.671 -142.3286
3.200000 72.068 -140.6177
3.250000 71.564 -138.2671
3.300000 71.207 -135.1858
3.350000 70.968 -130.8619
3.400000 70.801 -125.2998
3.450000 70.706 -118.9736
3.500000 70.685 -112.3574
3.550000 70.738 -105.9254
3.600000 70.864 -100.1516
3.650000 71.063 -95.5103
3.700000 71.366 -92.1707
3.750000 71.815 -89.5866
3.820000 72.609 -87.0072
3.870000 73.233 -85.7724
3.950000 74.203 -84.5762
4.000000 74.721 -84.1618
4.060000 75.200 -83.9416
4.120000 75.606 -84.3993
4.180000 75.957 -85.4219
4.250000 76.300 -87.0661
4.310000 76.540 -88.6369
4.370000 76.732 -90.1489
4.440000 76.894 -91.7469
4.500000 76.971 -93.2648
4.550000 76.996 -94.5996
4.620000 76.979 -96.4799
4.680000 76.924 -98.0140
4.750000 76.821 -99.5987
4.820000 76.669 -100.9868
4.870000 76.520 -101.9524
4.940000 76.269 -103.1934
5.000000 76.027 -104.0846
5.080000 75.688 -104.9085
5.150000 75.391 -105.1835
5.220000 75.052 -105.0530
5.300000 74.631 -104.4913
5.380000 74.224 -103.5698
5.450000 73.917 -102.5340
5.520000 73.688 -101.3041
5.600000 73.491 -99.3422
5.700000 73.326 -96.4300
5.800000 73.254 -93.7129
5.900000 73.288 -91.8506
6.000000 73.465 -90.5240
6.080000 73.668 -89.8183
6.150000 73.853 -89.5209
6.220000 74.014 -89.5721
6.300000 74.174 -90.1405
6.400000 74.379 -91.5403
6.500000 74.557 -93.4345
6.600000 74.676 -95.5338
6.700000 74.731 -97.9406
6.800000 74.735 -100.6746
6.900000 74.697 -103.4762
7.000000 74.619 -106.1340
7.100000 74.488 -108.8224
7.200000 74.321 -111.4493
7.300000 74.145 -113.8351
7.400000 73.962 -115.8827
7.500000 73.756 -117.6895
7.620000 73.525 -119.5154
7.750000 73.348 -121.0002
7.880000 73.226 -121.8911
8.000000 73.180 -122.4754
8.120000 73.226 -123.0679
8.250000 73.380 -123.5526
8.380000 73.598 -124.1304
8.500000 73.834 -124.9801
8.620000 74.121 -126.0528
8.750000 74.442 -127.3925
8.850000 74.667 -128.5356
9.000000 74.998 -130.4976
9.120000 75.239 -132.0881
9.250000 75.460 -133.7066
9.380000 75.647 -135.2907
9.500000 75.797 -136.5946
9.620000 75.927 -137.6729
9.750000 76.042 -138.6412
9.880000 76.151 -139.3962
10.000000 76.252 -139.8724
10.150000 76.375 -140.2112
10.300000 76.509 -140.4163
10.440000 76.647 -140.4611
10.600000 76.811 -140.4482
10.750000 76.968 -140.4743
10.900000 77.126 -140.5031
11.060000 77.279 -140.5760
11.200000 77.401 -140.6802
11.380000 77.538 -140.8075
11.500000 77.613 -140.8806
11.720000 77.726 -140.9774
11.800000 77.761 -140.9879
12.060000 77.854 -140.9651
12.200000 77.897 -140.9453
12.410000 77.952 -140.9196
12.500000 77.971 -140.9368
12.650000 77.999 -140.9966
12.800000 78.018 -141.0972
13.150000 78.016 -141.5082
13.200000 78.010 -141.5744
13.400000 77.975 -141.8597
13.600000 77.929 -142.1438
13.800000 77.874 -142.4055
14.000000 77.825 -142.6912
14.300000 77.764 -143.2074
14.500000 77.737 -143.6975
14.750000 77.709 -144.5137
15.000000 77.681 -145.5609
15.250000 77.642 -146.7707
15.500000 77.596 -148.0270
15.750000 77.548 -149.2642
16.000000 77.514 -150.4028
16.250000 77.507 -151.4711
16.500000 77.531 -152.4984
16.750000 77.586 -153.5459
17.000000 77.659 -154.6352
17.250000 77.741 -155.7431
17.500000 77.823 -156.8304
17.750000 77.900 -157.8137
18.000000 77.976 -158.6676
18.250000 78.052 -159.3658
18.500000 78.134 -159.9370
18.750000 78.217 -160.4132
19.000000 78.302 -160.8238
19.250000 78.379 -161.1913
19.500000 78.447 -161.5085
19.750000 78.503 -161.7710
20.000000 78.548 -161.9704
20.299999 78.591 -162.1488
20.600000 78.623 -162.2936
20.900000 78.644 -162.4451
21.200001 78.649 -162.6289
21.400000 78.644 -162.7659
21.799999 78.614 -163.0621
22.000000 78.593 -163.2227
22.400000 78.548 -163.5967
22.700001 78.514 -163.9685
23.000000 78.478 -164.4502
23.299999 78.437 -165.0278
23.600000 78.391 -165.6630
24.000000 78.329 -166.5347
24.299999 78.292 -167.1822
24.700001 78.264 -168.0558
25.000000 78.260 -168.7435
25.400000 78.269 -169.7046
25.799999 78.286 -170.6566
26.200001 78.311 -171.5242
26.500000 78.335 -172.1007
26.900000 78.375 -172.7811
27.200001 78.408 -173.2372
27.600000 78.450 -173.7745
28.000000 78.484 -174.2191
28.500000 78.518 -174.6567
29.000000 78.539 -175.0286
29.500000 78.540 -175.3758
30.000000 78.520 -175.6875
30.400000 78.496 -175.9246
30.700001 78.476 -176.1236
31.100000 78.448 -176.4545
31.500000 78.412 -176.8633
32.000000 78.357 -177.4323
32.500000 78.302 -178.0112
33.000000 78.260 -178.6123
33.500000 78.232 -179.2689
34.000000 78.212 -179.9635
34.500000 78.198 179.3526
35.000000 78.189 178.7122
35.500000 78.183 178.1441
36.000000 78.179 177.6714
36.500000 78.182 177.2743
37.000000 78.187 176.8917
37.500000 78.185 176.4969
38.200001 78.160 175.9896
38.700001 78.133 175.6815
39.500000 78.089 175.1692
40.000000 78.056 174.8120
40.599998 78.013 174.3713
41.200001 77.975 173.9053
41.799999 77.939 173.4004
42.500000 77.896 172.8182
43.099998 77.864 172.3661
43.700001 77.839 171.9376
44.400002 77.811 171.4361
45.000000 77.782 171.0253
45.500000 77.754 170.7299
46.200001 77.718 170.3584
46.799999 77.688 169.9897
47.500000 77.632 169.5553
48.200001 77.574 169.2986
48.700001 77.556 169.1423
49.400002 77.546 168.6986
50.000000 77.512 168.1869
50.799999 77.445 167.7076
51.500000 77.408 167.3988
52.200001 77.374 166.9770
53.000000 77.310 166.5297
53.799999 77.249 166.2385
54.500000 77.207 165.9554
55.200001 77.160 165.6175
56.000000 77.101 165.2672
57.000000 77.035 164.8740
58.000000 76.974 164.5417
59.000000 76.930 164.2512
60.000000 76.877 163.9488
60.799999 76.833 163.8300
61.500000 76.805 163.7289
62.200001 76.778 163.5620
63.000000 76.739 163.3307
64.000000 76.684 163.0498
65.000000 76.642 162.8043
66.000000 76.616 162.4517
67.000000 76.584 162.0540
68.000000 76.543 161.6725
69.000000 76.493 161.4030
70.000000 76.454 161.1808
71.000000 76.409 160.8490
72.000000 76.349 160.5526
73.000000 76.294 160.3017
74.000000 76.247 160.0458
75.000000 76.206 159.7499
76.199997 76.144 159.3845
77.500000 76.077 159.1232
78.800003 76.007 158.8357
80.000000 75.944 158.6833
81.199997 75.908 158.3871
82.500000 75.829 158.0375
83.800003 75.782 157.8427
85.000000 75.718 157.5784
86.199997 75.663 157.4326
87.500000 75.600 157.2097
88.500000 75.559 157.0215
90.000000 75.478 156.6646
91.199997 75.422 156.5326
92.500000 75.370 156.2760
93.800003 75.297 156.1160
95.000000 75.243 155.9679
96.199997 75.181 155.8093
97.500000 75.118 155.5815
98.800003 75.043 155.3983
100.000000 74.979 155.3692
101.500000 74.938 155.2420
103.000000 74.863 155.1277
104.400002 74.812 155.0201
106.000000 74.744 154.8832
107.500000 74.684 154.7891
109.000000 74.613 154.6096
110.599998 74.553 154.5177
112.000000 74.482 154.4375
113.800003 74.416 154.3168
115.000000 74.362 154.2843
117.199997 74.266 154.2151
118.000000 74.229 154.2003
120.599998 74.125 154.2148
122.000000 74.094 154.1494
124.099998 74.038 154.1253
125.000000 74.007 154.1049
126.500000 73.976 154.0964
128.000000 73.914 154.0229
131.500000 73.815 153.7313
132.000000 73.797 153.7370
134.000000 73.742 153.5953
136.000000 73.660 153.4531
138.000000 73.581 153.3613
140.000000 73.507 153.2863
143.000000 73.410 153.1437
145.000000 73.323 153.2914
147.500000 73.220 153.1431
150.000000 73.106 152.9644
152.500000 73.050 153.0259
155.000000 72.975 153.0742
157.500000 72.892 153.1848
160.000000 72.821 153.1751
162.500000 72.735 153.1266
165.000000 72.650 153.3635
167.500000 72.566 153.3584
170.000000 72.499 153.5840
172.500000 72.416 153.5436
175.000000 72.343 153.5427
177.500000 72.285 153.6269
180.000000 72.209 153.9131
182.500000 72.149 153.9564
185.000000 72.051 154.0647
187.500000 71.996 154.2128
190.000000 71.921 154.2935
192.500000 71.845 154.4101
195.000000 71.792 154.5486
197.500000 71.753 154.7344
200.000000 71.694 155.0326
203.000000 71.603 155.0508
206.000000 71.516 155.2193
209.000000 71.448 155.2547
212.000000 71.401 155.6542
214.000000 71.335 155.7383
218.000000 71.269 155.9915
220.000000 71.218 156.1036
224.000000 71.143 156.4575
227.000000 71.070 156.6823
230.000000 71.008 156.8421
233.000000 70.921 157.0878
236.000000 70.875 157.0908
240.000000 70.796 157.4969
243.000000 70.756 157.7829
247.000000 70.690 158.0457
250.000000 70.656 158.3118
254.000000 70.579 158.5449
258.000000 70.470 158.8983
262.000000 70.435 159.0903
265.000000 70.388 159.5080
269.000000 70.311 159.6405
272.000000 70.240 159.9919
276.000000 70.219 160.3854
280.000000 70.147 160.7059
285.000000 70.071 160.8743
290.000000 70.005 161.4290
295.000000 69.935 161.8248
300.000000 69.888 162.4329
304.000000 69.823 162.6393
307.000000 69.779 162.9198
311.000000 69.716 163.0947
315.000000 69.678 163.4725
320.000000 69.624 163.9132
325.000000 69.551 164.3394
330.000000 69.527 164.7527
335.000000 69.459 165.0101
340.000000 69.424 165.3833
345.000000 69.353 166.0830
350.000000 69.320 166.4232
355.000000 69.266 166.7965
360.000000 69.230 167.2324
365.000000 69.146 167.6744
370.000000 69.120 168.0227
375.000000 69.080 168.3327
382.000000 69.023 168.9114
387.000000 68.982 169.4609
395.000000 68.906 169.9641
400.000000 68.887 170.6298
406.000000 68.857 170.9403
412.000000 68.825 171.5677
418.000000 68.755 171.8194
425.000000 68.718 172.7672
431.000000 68.681 173.0154
437.000000 68.623 173.3834
444.000000 68.630 174.0169
450.000000 68.574 174.6603
455.000000 68.541 174.8497
462.000000 68.495 175.3245
468.000000 68.515 175.9478
475.000000 68.448 176.4675
482.000000 68.407 177.1470
487.000000 68.387 177.3554
494.000000 68.353 177.9865
500.000000 68.360 178.3767
508.000000 68.321 178.9919
515.000000 68.252 179.5248
522.000000 68.282 -179.8896
530.000000 68.221 -179.2947
538.000000 68.218 -178.7337
545.000000 68.167 -178.0098
552.000000 68.159 -177.3514
560.000000 68.154 -176.6828
570.000000 68.136 -176.0283
580.000000 68.110 -175.3589
590.000000 68.089 -174.6645
600.000000 68.075 -173.8544
608.000000 68.074 -173.2079
615.000000 68.046 -172.6677
622.000000 68.063 -172.3387
630.000000 67.982 -171.5037
640.000000 68.002 -170.7642
650.000000 67.977 -170.1833
660.000000 67.996 -169.3432
670.000000 67.985 -168.4646
680.000000 67.979 -167.5361
690.000000 68.008 -167.0929
700.000000 67.992 -166.2478
710.000000 67.980 -165.3670
720.000000 67.963 -164.8205
730.000000 67.994 -164.1363
740.000000 68.005 -163.0635
750.000000 68.014 -162.3180
762.000000 68.056 -161.4175
775.000000 68.078 -160.3894
788.000000 68.109 -159.7650
800.000000 68.163 -158.6304
812.000000 68.165 -157.8554
825.000000 68.201 -156.9217
838.000000 68.252 -156.0414
850.000000 68.283 -154.9234
862.000000 68.332 -154.0385
875.000000 68.379 -153.1881
885.000000 68.438 -152.5414
900.000000 68.473 -151.8520
912.000000 68.589 -150.8682
925.000000 68.640 -149.9365
938.000000 68.699 -149.2855
950.000000 68.804 -148.2128
962.000000 68.928 -147.6545
975.000000 68.968 -146.7661
988.000000 69.061 -146.0177
1000.000000 69.012 -145.9068
1015.000000 69.204 -144.5612
1030.000000 69.315 -143.9742
1044.000000 69.456 -143.1059
1060.000000 69.541 -142.3928
1075.000000 69.656 -141.7203
1090.000000 69.817 -140.9946
1106.000000 69.933 -140.5527
1120.000000 70.041 -140.1042
1138.000000 70.161 -139.2638
1150.000000 70.283 -138.9648
1172.000000 70.444 -138.4497
1180.000000 70.489 -138.3520
1206.000000 70.698 -137.8983
1220.000000 70.799 -137.4101
1241.000000 70.944 -137.2874
1250.000000 71.009 -137.1400
1265.000000 71.084 -137.0869
1280.000000 71.191 -136.7691
1315.000000 71.391 -136.1268
1320.000000 71.434 -136.1996
1340.000000 71.535 -135.8423
1360.000000 71.635 -135.7133
1380.000000 71.727 -135.2818
1400.000000 71.823 -135.0930
1430.000000 72.029 -134.5356
1450.000000 72.113 -134.4845
1475.000000 72.244 -133.9813
1500.000000 72.365 -133.6362
1525.000000 72.508 -133.3428
1550.000000 72.622 -133.1774
1575.000000 72.755 -132.8371
1600.000000 72.864 -132.2329
1625.000000 72.992 -132.3144
1650.000000 73.125 -132.0417
1675.000000 73.253 -131.8152
1700.000000 73.352 -131.4203
1725.000000 73.509 -131.3248
1750.000000 73.600 -131.1340
1775.000000 73.747 -131.0756
1800.000000 73.897 -130.8428
1825.000000 73.991 -130.5576
1850.000000 74.139 -130.5633
1875.000000 74.277 -130.2337
1900.000000 74.419 -130.2527
1925.000000 74.539 -130.0479
1950.000000 74.669 -129.9553
1975.000000 74.836 -130.0539
2000.000000 74.956 -129.6400
2030.000000 75.128 -130.0397
2060.000000 75.274 -130.2055
2090.000000 75.414 -130.3799
2120.000000 75.595 -130.6272
2140.000000 75.687 -130.6493
2180.000000 75.868 -130.8773
2200.000000 75.973 -131.0896
2240.000000 76.147 -131.4791
2270.000000 76.272 -131.6748
2300.000000 76.378 -131.8911
2330.000000 76.508 -132.0740
2360.000000 76.640 -132.0914
2400.000000 76.881 -132.2203
2430.000000 77.067 -132.4099
2470.000000 77.316 -133.1763
2500.000000 77.488 -134.0158
2540.000000 77.674 -135.2090
2580.000000 77.804 -136.2835
2620.000000 77.917 -137.4823
2650.000000 78.010 -137.9005
2690.000000 78.143 -138.7380
2720.000000 78.242 -139.4244
2760.000000 78.386 -140.5825
2800.000000 78.485 -141.7839
2850.000000 78.587 -143.4050
2900.000000 78.665 -144.8342
2950.000000 78.711 -146.3830
3000.000000 78.668 -147.9227
3040.000000 78.721 -148.8420
3070.000000 78.707 -149.6308
3110.000000 78.681 -150.4515
3150.000000 78.659 -151.2881
3200.000000 78.622 -152.2122
3250.000000 78.596 -153.0327
3300.000000 78.562 -153.8095
3350.000000 78.506 -154.4586
3400.000000 78.479 -155.1713
3450.000000 78.462 -155.6883
3500.000000 78.404 -156.1386
3550.000000 78.352 -156.7161
3600.000000 78.328 -157.1497
3650.000000 78.266 -157.6118
3700.000000 78.217 -158.0783
3750.000000 78.118 -158.1878
3820.000000 78.050 -158.2339
3870.000000 78.011 -158.0050
3950.000000 77.962 -157.4057
4000.000000 78.075 -157.4750
4060.000000 78.023 -156.6779
4120.000000 78.097 -156.1758
4180.000000 78.247 -156.1173
4250.000000 78.363 -156.3023
4310.000000 78.497 -156.4243
4370.000000 78.646 -156.7842
4440.000000 78.798 -157.3173
4500.000000 78.912 -157.8827
4550.000000 78.998 -158.5154
4620.000000 79.132 -159.4602
4680.000000 79.227 -160.3694
4750.000000 79.336 -161.6620
4820.000000 79.433 -162.9133
4870.000000 79.455 -163.9708
4940.000000 79.495 -165.5471
5000.000000 79.475 -166.6199
5080.000000 79.497 -168.4945
5150.000000 79.444 -170.1229
5220.000000 79.395 -171.5210
5300.000000 79.282 -173.0313
5380.000000 79.204 -174.7228
5450.000000 79.041 -176.1624
5520.000000 78.909 -177.5683
5600.000000 78.683 -178.8134
5700.000000 78.393 -179.9363
5800.000000 78.056 179.0465
5900.000000 77.716 178.7434
6000.000000 77.395 178.4996
6080.000000 77.130 178.9355
6150.000000 76.958 179.1759
6220.000000 76.781 179.7307
6300.000000 76.561 -179.5572
6400.000000 76.382 -178.3073
6500.000000 76.220 -177.5081
6600.000000 76.107 -175.9239
6700.000000 76.056 -174.7530
6800.000000 76.006 -173.4774
6900.000000 76.065 -172.1273
7000.000000 76.109 -171.0664
7100.000000 76.273 -169.8411
7200.000000 76.519 -168.9990
7300.000000 76.798 -168.2902
7400.000000 77.131 -168.0712
7500.000000 77.532 -168.7048
7620.000000 78.050 -170.6362
7750.000000 78.609 -174.2130
7880.000000 79.023 -179.8483
8000.000000 79.225 173.9761
8120.000000 79.090 166.2189
8250.000000 78.520 158.3282
8380.000000 77.676 152.0162
8500.000000 76.676 147.8650
8620.000000 75.612 145.1010
8750.000000 74.465 144.0649
8850.000000 73.620 143.8204
9000.000000 72.462 145.2449
9120.000000 71.631 146.9250
9250.000000 70.808 150.0322
9380.000000 70.062 152.2281
9500.000000 69.479 155.6146
9620.000000 68.753 158.8131
9750.000000 68.347 162.6639
9880.000000 68.013 166.5505
10000.000000 67.640 169.9848
10150.000000 67.229 175.2244
10300.000000 66.934 -179.1389
10440.000000 66.918 -174.5852
10600.000000 66.889 -169.1715
10750.000000 66.747 -164.7016
10900.000000 66.998 -159.1136
11060.000000 67.070 -154.3987
11200.000000 67.288 -148.4490
11380.000000 67.830 -143.4917
11500.000000 68.343 -141.0242
11720.000000 69.122 -134.7457
11800.000000 69.658 -132.8793
12060.000000 71.301 -127.5598
12200.000000 72.282 -125.7615
12410.000000 74.315 -126.9143
12500.000000 75.372 -129.4087
12650.000000 77.063 -136.5345
12800.000000 78.296 -149.9048
13150.000000 76.970 173.5246
13200.000000 76.385 170.9944
13400.000000 74.352 164.0440
13600.000000 72.475 163.5319
13800.000000 71.116 164.8660
14000.000000 70.206 168.6014
14300.000000 69.129 173.3391
14500.000000 68.775 177.2102
14750.000000 68.613 -178.4400
15000.000000 68.840 -174.2397
15250.000000 69.306 -171.5660
15500.000000 70.143 -170.4953
15750.000000 71.053 -172.3587
16000.000000 72.274 -179.5454
16250.000000 72.574 168.1030
16500.000000 72.227 155.0807
16750.000000 70.945 144.6396
17000.000000 69.446 137.7211
17250.000000 68.240 134.5237
17500.000000 67.069 132.3470
17750.000000 65.915 128.3991
18000.000000 64.779 122.7819
18250.000000 63.145 119.0795
18500.000000 61.101 113.3144
18750.000000 58.916 110.9448
19000.000000 56.557 109.3065
19250.000000 53.845 114.4354
19500.000000 51.114 117.8461
19750.000000 49.628 134.4868
20000.000000 50.023 134.9963
20300.000000 44.290 154.9047
20600.000000 41.537 152.3149
20900.000000 41.787 159.2956
21200.000000 40.178 -174.7152
21400.000000 34.356 -161.0883
21800.000000 33.053 -175.0663
22000.000000 25.454 130.1866
22400.000000 20.272 3.1792
22700.000000 16.616 29.3398
23000.000000 8.553 46.2539
23300.000000 16.142 174.4375
23600.000000 25.511 -172.2773

