* Measurement data measured by REW V5.20.13
* Source: Microphone (USB Sound Device        ), MICROPHONE (Master Volume), R, volume: 0,250
* Format: 256k Log Swept Sine, 1 sweep at -12,0 dBFS with no timing reference
* Dated: 15:28:59 13-07-2024
* REW Settings:
*  C-weighting compensation: Off
*  Target level: 75.0 dB
* Note: ; 
* Measurement: EPZ 530 L
* Smoothing: None
* Frequency Step: 1/48 octave
* Start Frequency: 1.000 Hz
*
* Freq(Hz) SPL(dB) Phase(degrees)
1.000000 83.027 129.1044
1.015000 82.808 128.5742
1.030000 82.579 128.0901
1.044000 82.355 127.6834
1.060000 82.086 127.2760
1.075000 81.821 126.9535
1.090000 81.543 126.6926
1.106000 81.228 126.5792
1.120000 80.922 126.6325
1.138000 80.487 126.7707
1.150000 80.173 126.9025
1.172000 79.556 127.2167
1.180000 79.320 127.3517
1.206000 78.519 127.8543
1.220000 78.072 128.1587
1.241000 77.385 128.6482
1.250000 77.088 128.8671
1.265000 76.592 129.2401
1.280000 76.097 129.6187
1.315000 74.968 130.4957
1.320000 74.812 130.6174
1.340000 74.204 131.0882
1.360000 73.631 131.5237
1.380000 73.100 131.9119
1.400000 72.622 132.2408
1.430000 72.019 132.5964
1.450000 71.706 132.7240
1.475000 71.426 134.2729
1.500000 71.244 138.8495
1.525000 71.146 144.4714
1.550000 71.123 150.9581
1.575000 71.169 158.1289
1.600000 71.273 165.8035
1.625000 71.430 173.8011
1.650000 71.630 -178.0587
1.675000 71.865 -169.9563
1.700000 72.128 -162.0724
1.725000 72.410 -154.5877
1.750000 72.704 -147.6824
1.775000 73.002 -141.5373
1.800000 73.294 -136.3328
1.825000 73.574 -132.2495
1.850000 73.855 -129.3161
1.875000 74.182 -127.2147
1.900000 74.548 -125.8463
1.925000 74.947 -125.1246
1.950000 75.371 -124.9638
1.975000 75.812 -125.2777
2.000000 76.263 -125.9800
2.030000 76.807 -127.2146
2.060000 77.343 -128.7360
2.090000 77.856 -130.3953
2.120000 78.334 -132.0439
2.140000 78.627 -133.0635
2.180000 79.134 -134.7136
2.200000 79.340 -135.2588
2.240000 79.686 -136.3067
2.270000 79.902 -137.2238
2.300000 80.084 -138.2333
2.330000 80.234 -139.3171
2.360000 80.358 -140.4571
2.400000 80.485 -142.0333
2.430000 80.558 -143.2342
2.470000 80.630 -144.8260
2.500000 80.669 -145.9893
2.540000 80.709 -147.4655
2.580000 80.739 -148.8344
2.620000 80.742 -150.2135
2.650000 80.723 -151.2627
2.690000 80.674 -152.6619
2.720000 80.619 -153.6981
2.760000 80.525 -155.0426
2.800000 80.408 -156.3223
2.850000 80.234 -157.7935
2.900000 80.033 -159.0778
2.950000 79.807 -160.1506
3.000000 79.534 -161.1654
3.040000 79.284 -161.9261
3.070000 79.082 -162.4437
3.110000 78.799 -163.0352
3.150000 78.505 -163.4817
3.200000 78.131 -163.7825
3.250000 77.761 -163.7336
3.300000 77.407 -163.2661
3.350000 77.033 -162.3153
3.400000 76.624 -160.9286
3.450000 76.205 -159.1959
3.500000 75.799 -157.2066
3.550000 75.430 -155.0504
3.600000 75.123 -152.8168
3.650000 74.901 -150.5956
3.700000 74.779 -148.3030
3.750000 74.739 -145.6552
3.820000 74.792 -141.6354
3.870000 74.887 -138.7658
3.950000 75.096 -134.6357
4.000000 75.240 -132.6007
4.060000 75.416 -130.9258
4.120000 75.650 -129.8709
4.180000 75.928 -129.3069
4.250000 76.268 -129.1470
4.310000 76.541 -129.3320
4.370000 76.767 -129.7175
4.440000 76.953 -130.4111
4.500000 77.079 -131.4049
4.550000 77.162 -132.4562
4.620000 77.242 -134.1488
4.680000 77.276 -135.6930
4.750000 77.270 -137.4593
4.820000 77.212 -139.2092
4.870000 77.139 -140.5635
4.940000 76.997 -142.5248
5.000000 76.843 -144.1900
5.080000 76.599 -146.2596
5.150000 76.353 -147.8288
5.220000 76.056 -149.3188
5.300000 75.667 -150.9046
5.380000 75.250 -152.2358
5.450000 74.886 -153.0854
5.520000 74.535 -153.5497
5.600000 74.101 -153.6109
5.700000 73.550 -153.1439
5.800000 73.070 -152.2743
5.900000 72.742 -151.1361
6.000000 72.541 -149.3504
6.080000 72.454 -147.7452
6.150000 72.429 -146.4947
6.220000 72.446 -145.6199
6.300000 72.540 -145.0908
6.400000 72.769 -144.8357
6.500000 73.050 -145.0688
6.600000 73.307 -145.8321
6.700000 73.547 -147.2762
6.800000 73.790 -149.2786
6.900000 74.005 -151.5397
7.000000 74.167 -153.8200
7.100000 74.283 -156.3409
7.200000 74.361 -158.9630
7.300000 74.407 -161.4352
7.400000 74.416 -163.6516
7.500000 74.382 -165.7635
7.620000 74.315 -167.9818
7.750000 74.241 -169.7583
7.880000 74.142 -170.9182
8.000000 74.069 -171.5458
8.120000 74.053 -171.7765
8.250000 74.082 -171.4661
8.380000 74.166 -170.9463
8.500000 74.306 -170.5428
8.620000 74.509 -170.0680
8.750000 74.756 -169.6688
8.850000 74.946 -169.5781
9.000000 75.257 -169.7160
9.120000 75.493 -169.9670
9.250000 75.709 -170.3500
9.380000 75.897 -170.8777
9.500000 76.043 -171.3330
9.620000 76.154 -171.6857
9.750000 76.241 -172.0112
9.880000 76.309 -172.1855
10.000000 76.358 -172.1598
10.150000 76.400 -171.9324
10.300000 76.447 -171.5516
10.440000 76.496 -171.0237
10.600000 76.558 -170.3482
10.750000 76.627 -169.7402
10.900000 76.703 -169.1336
11.060000 76.775 -168.5802
11.200000 76.835 -168.1751
11.380000 76.893 -167.7104
11.500000 76.918 -167.4374
11.720000 76.941 -166.9653
11.800000 76.943 -166.7822
12.060000 76.927 -166.1779
12.200000 76.913 -165.8490
12.410000 76.887 -165.3726
12.500000 76.875 -165.2045
12.650000 76.855 -164.9616
12.800000 76.829 -164.7823
13.150000 76.741 -164.6643
13.200000 76.724 -164.6679
13.400000 76.645 -164.7416
13.600000 76.556 -164.8398
13.800000 76.458 -164.9317
14.000000 76.368 -165.0300
14.300000 76.256 -165.2225
14.500000 76.208 -165.4674
14.750000 76.168 -165.9818
15.000000 76.144 -166.7496
15.250000 76.118 -167.7283
15.500000 76.087 -168.7778
15.750000 76.054 -169.8114
16.000000 76.030 -170.7032
16.250000 76.031 -171.4536
16.500000 76.063 -172.0894
16.750000 76.132 -172.6813
17.000000 76.221 -173.2901
17.250000 76.322 -173.9091
17.500000 76.420 -174.5188
17.750000 76.509 -175.0312
18.000000 76.590 -175.4137
18.250000 76.667 -175.6312
18.500000 76.746 -175.7116
18.750000 76.826 -175.6971
19.000000 76.907 -175.6266
19.250000 76.980 -175.5393
19.500000 77.043 -175.4293
19.750000 77.092 -175.2934
20.000000 77.128 -175.1158
20.299999 77.158 -174.8649
20.600000 77.177 -174.6055
20.900000 77.185 -174.3826
21.200001 77.179 -174.2284
21.400000 77.165 -174.1589
21.799999 77.118 -174.0732
22.000000 77.088 -174.0496
22.400000 77.025 -174.0518
22.700001 76.981 -174.1390
23.000000 76.941 -174.3363
23.299999 76.900 -174.6364
23.600000 76.861 -175.0046
24.000000 76.815 -175.5412
24.299999 76.794 -175.9571
24.700001 76.792 -176.5526
25.000000 76.806 -177.0511
25.400000 76.837 -177.7665
25.799999 76.871 -178.4478
26.200001 76.910 -179.0020
26.500000 76.948 -179.3247
26.900000 77.007 -179.6671
27.200001 77.054 -179.8823
27.600000 77.109 179.8904
28.000000 77.153 179.7706
28.500000 77.198 179.7817
29.000000 77.239 179.8569
29.500000 77.264 179.8825
30.000000 77.264 179.8658
30.400000 77.248 179.8528
30.700001 77.233 179.8346
31.100000 77.211 179.7624
31.500000 77.187 179.6149
32.000000 77.152 179.3463
32.500000 77.118 179.0289
33.000000 77.096 178.6635
33.500000 77.086 178.2357
34.000000 77.085 177.7809
34.500000 77.092 177.3501
35.000000 77.111 176.9486
35.500000 77.134 176.5654
36.000000 77.152 176.2309
36.500000 77.166 175.9947
37.000000 77.182 175.8573
37.500000 77.201 175.7575
38.200001 77.223 175.5683
38.700001 77.223 175.4019
39.500000 77.201 175.2141
40.000000 77.190 175.1420
40.599998 77.186 175.0132
41.200001 77.184 174.8262
41.799999 77.190 174.6231
42.500000 77.215 174.2558
43.099998 77.221 173.7745
43.700001 77.196 173.3953
44.400002 77.176 173.2455
45.000000 77.190 173.0809
45.500000 77.191 172.8234
46.200001 77.162 172.6044
46.799999 77.160 172.6073
47.500000 77.195 172.3947
48.200001 77.198 171.8927
48.700001 77.174 171.6293
49.400002 77.155 171.4594
50.000000 77.156 171.2922
50.799999 77.153 171.0373
51.500000 77.151 170.8992
52.200001 77.158 170.7444
53.000000 77.156 170.5385
53.799999 77.150 170.3856
54.500000 77.148 170.2287
55.200001 77.141 170.0466
56.000000 77.136 169.8739
57.000000 77.151 169.6099
58.000000 77.172 169.2825
59.000000 77.201 168.9783
60.000000 77.238 168.6921
60.799999 77.277 168.3962
61.500000 77.296 168.0262
62.200001 77.294 167.7081
63.000000 77.299 167.4187
64.000000 77.301 166.8496
65.000000 77.274 166.3786
66.000000 77.269 165.9308
67.000000 77.242 165.4877
68.000000 77.250 165.2953
69.000000 77.273 164.7323
70.000000 77.233 164.2363
71.000000 77.210 163.9858
72.000000 77.193 163.6042
73.000000 77.167 163.2567
74.000000 77.149 162.9215
75.000000 77.138 162.5578
76.199997 77.112 162.1108
77.500000 77.097 161.7573
78.800003 77.077 161.2695
80.000000 77.057 160.8872
81.199997 77.029 160.4480
82.500000 77.001 160.1610
83.800003 76.989 159.8099
85.000000 76.971 159.5017
86.199997 76.949 159.1805
87.500000 76.923 158.8044
88.500000 76.896 158.5210
90.000000 76.865 158.1226
91.199997 76.846 157.8232
92.500000 76.823 157.4665
93.800003 76.796 157.1797
95.000000 76.763 156.9245
96.199997 76.740 156.7426
97.500000 76.718 156.4159
98.800003 76.679 156.1307
100.000000 76.661 156.0589
101.500000 76.668 155.6788
103.000000 76.632 155.4076
104.400002 76.625 155.1760
106.000000 76.621 154.8502
107.500000 76.609 154.5633
109.000000 76.622 154.2059
110.599998 76.609 153.7386
112.000000 76.596 153.4147
113.800003 76.585 152.8372
115.000000 76.568 152.5366
117.199997 76.533 151.9102
118.000000 76.520 151.6958
120.599998 76.475 151.0414
122.000000 76.449 150.7269
124.099998 76.421 150.1551
125.000000 76.402 149.9324
126.500000 76.363 149.5562
128.000000 76.327 149.2577
131.500000 76.252 148.5817
132.000000 76.241 148.4951
134.000000 76.210 148.1998
136.000000 76.178 147.9798
138.000000 76.166 147.6790
140.000000 76.174 147.1808
143.000000 76.120 146.2758
145.000000 76.095 145.7000
147.500000 76.034 145.0434
150.000000 75.989 144.5322
152.500000 75.929 144.0404
155.000000 75.896 143.5270
157.500000 75.834 143.1001
160.000000 75.773 142.5589
162.500000 75.719 142.1454
165.000000 75.666 141.6762
167.500000 75.614 141.1527
170.000000 75.555 140.7727
172.500000 75.515 140.2768
175.000000 75.468 139.9546
177.500000 75.415 139.4896
180.000000 75.370 139.1270
182.500000 75.309 138.6593
185.000000 75.263 138.2584
187.500000 75.232 137.8686
190.000000 75.178 137.5746
192.500000 75.118 137.3158
195.000000 75.067 136.7452
197.500000 75.024 136.4041
200.000000 74.969 136.0013
203.000000 74.928 135.6157
206.000000 74.864 135.1403
209.000000 74.797 134.7831
212.000000 74.738 134.4147
214.000000 74.700 134.1248
218.000000 74.633 133.5462
220.000000 74.595 133.3333
224.000000 74.518 132.8224
227.000000 74.468 132.4188
230.000000 74.410 132.0302
233.000000 74.359 131.6327
236.000000 74.309 131.3670
240.000000 74.241 130.8954
243.000000 74.163 130.5173
247.000000 74.096 129.9154
250.000000 74.068 129.6400
254.000000 73.996 129.2095
258.000000 73.920 128.7948
262.000000 73.832 128.3862
265.000000 73.773 128.0544
269.000000 73.705 127.6613
272.000000 73.640 127.3397
276.000000 73.595 126.9636
280.000000 73.525 126.6150
285.000000 73.421 126.0305
290.000000 73.330 125.6343
295.000000 73.269 125.2449
300.000000 73.157 124.9835
304.000000 73.099 124.3377
307.000000 73.052 124.0728
311.000000 72.995 123.8164
315.000000 72.920 123.4700
320.000000 72.846 123.0889
325.000000 72.756 122.8083
330.000000 72.667 122.4102
335.000000 72.582 122.0391
340.000000 72.517 121.7100
345.000000 72.439 121.2937
350.000000 72.374 121.0010
355.000000 72.284 120.6444
360.000000 72.185 120.4196
365.000000 72.127 120.0003
370.000000 72.060 119.8027
375.000000 72.003 119.6033
382.000000 71.896 119.0852
387.000000 71.819 118.8594
395.000000 71.697 118.5395
400.000000 71.641 118.2277
406.000000 71.540 117.9935
412.000000 71.475 117.8144
418.000000 71.398 117.6561
425.000000 71.349 117.3664
431.000000 71.300 117.0676
437.000000 71.216 116.6875
444.000000 71.160 116.4180
450.000000 71.080 116.1025
455.000000 70.998 115.7016
462.000000 70.932 115.6889
468.000000 70.865 115.3023
475.000000 70.770 115.0790
482.000000 70.688 114.7947
487.000000 70.655 114.7156
494.000000 70.571 114.4599
500.000000 70.475 114.4710
508.000000 70.431 114.1946
515.000000 70.364 113.9422
522.000000 70.269 113.9827
530.000000 70.229 113.6750
538.000000 70.163 113.4279
545.000000 70.074 113.4531
552.000000 70.035 113.1947
560.000000 69.967 113.1488
570.000000 69.865 113.0434
580.000000 69.778 112.7391
590.000000 69.715 112.7415
600.000000 69.665 112.6975
608.000000 69.549 112.5434
615.000000 69.557 112.5002
622.000000 69.488 112.5897
630.000000 69.498 112.5804
640.000000 69.375 112.2455
650.000000 69.338 112.2473
660.000000 69.309 112.2880
670.000000 69.239 112.3315
680.000000 69.176 112.2776
690.000000 69.165 112.5190
700.000000 69.123 112.5968
710.000000 69.109 112.5537
720.000000 69.039 112.6203
730.000000 69.044 112.7955
740.000000 69.005 112.7533
750.000000 68.997 113.0742
762.000000 68.931 112.9351
775.000000 68.943 113.1462
788.000000 68.926 113.3044
800.000000 68.946 113.6719
812.000000 68.931 113.7704
825.000000 68.966 114.0523
838.000000 69.038 114.0982
850.000000 69.022 114.4223
862.000000 69.080 114.5389
875.000000 69.098 114.4891
885.000000 69.144 114.6105
900.000000 69.223 114.9488
912.000000 69.275 115.2431
925.000000 69.348 115.1013
938.000000 69.393 115.4263
950.000000 69.475 115.5229
962.000000 69.517 115.6198
975.000000 69.663 115.6311
988.000000 69.768 115.6426
1000.000000 69.858 116.3925
1015.000000 69.999 115.6273
1030.000000 70.079 115.3210
1044.000000 70.236 115.3891
1060.000000 70.390 115.3928
1075.000000 70.499 114.9573
1090.000000 70.681 114.9296
1106.000000 70.798 114.3356
1120.000000 70.947 114.0732
1138.000000 71.106 113.4174
1150.000000 71.234 113.1262
1172.000000 71.430 112.6056
1180.000000 71.497 112.2170
1206.000000 71.775 111.4441
1220.000000 71.893 110.9436
1241.000000 72.118 110.0180
1250.000000 72.159 109.6551
1265.000000 72.316 109.2341
1280.000000 72.424 108.3750
1315.000000 72.726 107.0782
1320.000000 72.791 106.8345
1340.000000 72.976 105.9912
1360.000000 73.140 104.8651
1380.000000 73.305 103.9704
1400.000000 73.487 103.1257
1430.000000 73.748 101.7221
1450.000000 73.911 100.7043
1475.000000 74.128 99.3977
1500.000000 74.331 98.0667
1525.000000 74.544 96.5815
1550.000000 74.765 95.2779
1575.000000 74.976 93.8126
1600.000000 75.179 92.2602
1625.000000 75.365 90.7384
1650.000000 75.565 89.1241
1675.000000 75.757 87.5555
1700.000000 75.940 85.7173
1725.000000 76.101 84.1235
1750.000000 76.299 82.3128
1775.000000 76.439 80.6027
1800.000000 76.594 78.6314
1825.000000 76.739 76.8116
1850.000000 76.875 75.0441
1875.000000 77.002 73.0139
1900.000000 77.112 71.2170
1925.000000 77.206 69.1671
1950.000000 77.301 67.2473
1975.000000 77.367 65.3665
2000.000000 77.383 63.5339
2030.000000 77.517 61.2454
2060.000000 77.547 58.9393
2090.000000 77.592 56.9110
2120.000000 77.619 54.6606
2140.000000 77.654 53.4229
2180.000000 77.639 50.7745
2200.000000 77.645 49.3529
2240.000000 77.608 46.9245
2270.000000 77.604 45.2822
2300.000000 77.538 43.7214
2330.000000 77.530 42.4058
2360.000000 77.518 41.1337
2400.000000 77.556 39.5939
2430.000000 77.639 38.5456
2470.000000 77.765 36.4769
2500.000000 77.873 34.5352
2540.000000 77.937 31.7546
2580.000000 77.961 28.9313
2620.000000 77.931 25.9580
2650.000000 77.884 23.9281
2690.000000 77.778 21.0910
2720.000000 77.678 19.0353
2760.000000 77.485 16.4565
2800.000000 77.240 14.2999
2850.000000 76.922 12.2123
2900.000000 76.640 10.7252
2950.000000 76.359 9.7301
3000.000000 76.110 9.2174
3040.000000 75.995 8.5207
3070.000000 75.883 8.2758
3110.000000 75.753 7.9470
3150.000000 75.667 7.4914
3200.000000 75.531 7.4131
3250.000000 75.451 7.2084
3300.000000 75.381 7.1194
3350.000000 75.347 6.9529
3400.000000 75.309 7.0792
3450.000000 75.322 6.9743
3500.000000 75.346 6.8400
3550.000000 75.395 6.7895
3600.000000 75.441 6.4300
3650.000000 75.509 6.3675
3700.000000 75.569 5.9660
3750.000000 75.627 5.6892
3820.000000 75.747 5.0623
3870.000000 75.816 4.8794
3950.000000 75.938 4.3767
4000.000000 76.175 4.1879
4060.000000 76.255 3.8234
4120.000000 76.498 3.2098
4180.000000 76.696 2.0867
4250.000000 76.967 0.8476
4310.000000 77.178 -0.9410
4370.000000 77.379 -2.7581
4440.000000 77.566 -5.2265
4500.000000 77.721 -7.5932
4550.000000 77.789 -9.6543
4620.000000 77.794 -12.6827
4680.000000 77.780 -15.5280
4750.000000 77.657 -18.6258
4820.000000 77.448 -21.7302
4870.000000 77.255 -23.5546
4940.000000 76.960 -25.8670
5000.000000 76.693 -27.4477
5080.000000 76.227 -29.1593
5150.000000 75.786 -29.9459
5220.000000 75.381 -30.5088
5300.000000 74.945 -30.5258
5380.000000 74.495 -29.2407
5450.000000 74.181 -28.7662
5520.000000 73.878 -26.9993
5600.000000 73.474 -24.9783
5700.000000 73.176 -21.0056
5800.000000 73.138 -15.3469
5900.000000 73.843 -11.0074
6000.000000 74.586 -11.3370
6080.000000 74.949 -13.7787
6150.000000 74.981 -16.0149
6220.000000 74.864 -17.1231
6300.000000 74.666 -17.6455
6400.000000 74.519 -17.2465
6500.000000 74.372 -16.3712
6600.000000 74.316 -15.2742
6700.000000 74.296 -14.1521
6800.000000 74.367 -13.0984
6900.000000 74.443 -11.5553
7000.000000 74.604 -10.5019
7100.000000 74.832 -9.1934
7200.000000 75.066 -8.3145
7300.000000 75.424 -7.4905
7400.000000 75.795 -7.5657
7500.000000 76.269 -8.1520
7620.000000 76.786 -10.0870
7750.000000 77.291 -13.0973
7880.000000 77.743 -17.8539
8000.000000 77.906 -24.3624
8120.000000 77.636 -31.1563
8250.000000 77.012 -37.2967
8380.000000 76.106 -41.4351
8500.000000 75.119 -43.0616
8620.000000 74.212 -43.1812
8750.000000 73.410 -41.8072
8850.000000 72.798 -40.4121
9000.000000 72.058 -36.8023
9120.000000 71.534 -33.4423
9250.000000 71.065 -29.9823
9380.000000 70.776 -26.1908
9500.000000 70.556 -22.6998
9620.000000 70.538 -19.3582
9750.000000 70.574 -15.2578
9880.000000 70.604 -12.2017
10000.000000 70.735 -8.7476
10150.000000 71.098 -7.0978
10300.000000 71.315 -5.6929
10440.000000 71.437 -6.0533
10600.000000 71.416 -6.6350
10750.000000 71.078 -7.2946
10900.000000 70.549 -5.7575
11060.000000 69.925 -2.9736
11200.000000 69.491 0.9168
11380.000000 69.115 7.8890
11500.000000 69.116 13.4155
11720.000000 69.461 23.0647
11800.000000 69.661 25.2434
12060.000000 70.768 34.1053
12200.000000 71.504 36.6805
12410.000000 72.781 38.3057
12500.000000 73.415 37.9662
12650.000000 74.207 35.9022
12800.000000 74.881 31.4038
13150.000000 74.977 20.3951
13200.000000 74.912 18.4884
13400.000000 74.480 15.2783
13600.000000 73.905 12.9532
13800.000000 73.487 11.7545
14000.000000 73.143 11.4545
14300.000000 72.779 9.7151
14500.000000 72.500 7.1469
14750.000000 71.739 3.9257
15000.000000 70.383 1.4571
15250.000000 67.949 15.7981
15500.000000 69.498 13.2709
15750.000000 68.925 15.4539
16000.000000 68.687 17.7296
16250.000000 68.712 18.7667
16500.000000 68.417 20.4339
16750.000000 68.719 23.9613
17000.000000 69.923 25.9175
17250.000000 72.365 20.3068
17500.000000 75.372 -13.8994
17750.000000 71.141 -66.0351
18000.000000 64.512 -83.2504
18250.000000 58.637 -85.8679
18500.000000 52.596 -84.7842
18750.000000 48.078 -61.8149
19000.000000 46.402 -35.6445
19250.000000 46.750 -49.9932
19500.000000 42.903 -77.1068
19750.000000 35.364 -78.2667
20000.000000 35.181 -45.5994
20300.000000 21.696 44.2681
20600.000000 23.788 30.8857
20900.000000 29.270 -62.0059
21200.000000 15.226 -97.9023
21400.000000 21.064 -121.4297
21800.000000 15.073 -98.0234
22000.000000 21.858 -45.1211
22400.000000 15.663 -13.8750
22700.000000 15.821 67.8984
23000.000000 5.434 -121.6562
23300.000000 17.782 -171.7969
23600.000000 24.173 -135.6562

