* Measurement data measured by REW V5.20.13
* Source: Microphone (USB Sound Device        ), MICROPHONE (Master Volume), R, volume: 0,250
* Format: 256k Log Swept Sine, 1 sweep at -12,0 dBFS with no timing reference
* Dated: 00:01:40 28-02-2024
* REW Settings:
*  C-weighting compensation: Off
*  Target level: 75.0 dB
* Note: ; 
* Measurement: Godmod 500bd foam notip R
* Smoothing: None
* Frequency Step: 1/48 octave
* Start Frequency: 1.000 Hz
*
* Freq(Hz) SPL(dB) Phase(degrees)
1.000000 84.678 120.8964
1.015000 84.508 119.9983
1.030000 84.331 119.0980
1.044000 84.160 118.2554
1.060000 83.957 117.2897
1.075000 83.760 116.3814
1.090000 83.555 115.4701
1.106000 83.332 114.5116
1.120000 83.149 113.7759
1.138000 82.932 112.9770
1.150000 82.796 112.5224
1.172000 82.561 111.8173
1.180000 82.478 111.5933
1.206000 82.212 110.9417
1.220000 82.067 110.6159
1.241000 81.840 110.1212
1.250000 81.738 109.8966
1.265000 81.558 109.4915
1.280000 81.363 109.0327
1.315000 80.839 107.6544
1.320000 80.754 107.4127
1.340000 80.386 106.3083
1.360000 79.966 104.9521
1.380000 79.487 103.3024
1.400000 78.943 101.3174
1.430000 77.989 97.6203
1.450000 77.249 94.6148
1.475000 76.180 90.1755
1.500000 74.802 84.9475
1.525000 73.135 79.0073
1.550000 71.238 72.4442
1.575000 69.171 65.3470
1.600000 66.992 57.8048
1.625000 64.763 49.9067
1.650000 62.543 41.7417
1.675000 60.391 33.3989
1.700000 58.368 24.9672
1.725000 56.533 16.5358
1.750000 54.946 8.1936
1.775000 53.666 0.0298
1.800000 52.754 -7.8667
1.825000 52.268 -15.4068
1.850000 52.262 -22.7289
1.875000 52.713 -30.2941
1.900000 53.562 -38.0532
1.925000 54.749 -45.9337
1.950000 56.212 -53.8635
1.975000 57.893 -61.7700
2.000000 59.731 -69.5810
2.030000 62.059 -78.7262
2.060000 64.422 -87.5047
2.090000 66.715 -95.7915
2.120000 68.836 -103.4615
2.140000 70.102 -108.1705
2.180000 72.142 -116.4512
2.200000 72.855 -119.9490
2.240000 73.902 -125.5912
2.270000 74.473 -128.7708
2.300000 74.884 -131.1882
2.330000 75.159 -132.9696
2.360000 75.320 -134.2406
2.400000 75.397 -135.3589
2.430000 75.382 -135.9285
2.470000 75.307 -136.5685
2.500000 75.240 -137.1220
2.540000 75.178 -138.1972
2.580000 75.184 -139.8676
2.620000 75.164 -141.7544
2.650000 75.115 -143.1988
2.690000 75.004 -145.1072
2.720000 74.887 -146.4871
2.760000 74.687 -148.2021
2.800000 74.437 -149.7099
2.850000 74.054 -151.1962
2.900000 73.596 -152.1118
2.950000 73.047 -152.3897
3.000000 72.284 -152.4978
3.040000 71.550 -152.4283
3.070000 70.956 -152.2127
3.110000 70.142 -151.6186
3.150000 69.343 -150.5728
3.200000 68.434 -148.4619
3.250000 67.705 -145.2567
3.300000 67.243 -140.7361
3.350000 67.024 -134.0165
3.400000 66.973 -125.1577
3.450000 67.066 -115.0115
3.500000 67.278 -104.4295
3.550000 67.584 -94.2634
3.600000 67.961 -85.3650
3.650000 68.382 -78.5858
3.700000 68.878 -77.2117
3.750000 69.539 -76.6458
3.820000 70.641 -75.4073
3.870000 71.479 -74.4079
3.950000 72.749 -73.0258
4.000000 73.412 -72.5317
4.060000 74.004 -72.7692
4.120000 74.466 -73.8810
4.180000 74.828 -75.4884
4.250000 75.148 -77.7311
4.310000 75.351 -79.7461
4.370000 75.506 -81.6415
4.440000 75.633 -83.6137
4.500000 75.670 -85.3894
4.550000 75.655 -86.8922
4.620000 75.572 -88.9323
4.680000 75.453 -90.5297
4.750000 75.269 -92.0974
4.820000 75.026 -93.3912
4.870000 74.802 -94.2561
4.940000 74.438 -95.2785
5.000000 74.098 -95.8819
5.080000 73.636 -96.1303
5.150000 73.246 -95.6723
5.220000 72.809 -94.5221
5.300000 72.276 -92.5423
5.380000 71.781 -90.0884
5.450000 71.438 -87.7458
5.520000 71.229 -85.3262
5.600000 71.132 -81.9331
5.700000 71.163 -77.2482
5.800000 71.306 -73.0901
5.900000 71.513 -70.4451
6.000000 71.861 -69.0334
6.080000 72.192 -68.5612
6.150000 72.470 -68.5481
6.220000 72.695 -68.8433
6.300000 72.888 -69.6618
6.400000 73.087 -71.4755
6.500000 73.223 -73.7898
6.600000 73.281 -76.2009
6.700000 73.251 -78.8055
6.800000 73.145 -81.6644
6.900000 72.983 -84.5091
7.000000 72.778 -87.1194
7.100000 72.503 -89.6663
7.200000 72.187 -92.0694
7.300000 71.870 -94.1622
7.400000 71.562 -95.8275
7.500000 71.233 -97.1409
7.620000 70.878 -98.3637
7.750000 70.625 -99.3261
7.880000 70.483 -99.7323
8.000000 70.450 -100.0559
8.120000 70.529 -100.7449
8.250000 70.753 -101.7030
8.380000 71.046 -102.9948
8.500000 71.329 -104.6530
8.620000 71.653 -106.7415
8.750000 72.001 -109.2220
8.850000 72.236 -111.1642
9.000000 72.561 -114.3023
9.120000 72.791 -116.7366
9.250000 72.996 -119.1023
9.380000 73.161 -121.2953
9.500000 73.296 -123.0346
9.620000 73.416 -124.4098
9.750000 73.527 -125.5522
9.880000 73.645 -126.3910
10.000000 73.769 -126.8686
10.150000 73.937 -127.1111
10.300000 74.131 -127.2375
10.440000 74.342 -127.2211
10.600000 74.596 -127.1759
10.750000 74.836 -127.2519
10.900000 75.077 -127.3835
11.060000 75.306 -127.5866
11.200000 75.486 -127.8321
11.380000 75.685 -128.1157
11.500000 75.793 -128.2671
11.720000 75.956 -128.4429
11.800000 76.006 -128.4503
12.060000 76.143 -128.3199
12.200000 76.212 -128.1850
12.410000 76.307 -127.9244
12.500000 76.347 -127.8354
12.650000 76.412 -127.7000
12.800000 76.470 -127.6115
13.150000 76.573 -127.6697
13.200000 76.583 -127.7024
13.400000 76.609 -127.8981
13.600000 76.616 -128.1694
13.800000 76.605 -128.5052
14.000000 76.579 -128.9069
14.300000 76.518 -129.6326
14.500000 76.463 -130.2066
14.750000 76.380 -130.9827
15.000000 76.283 -131.7941
15.250000 76.183 -132.5533
15.500000 76.099 -133.2320
15.750000 76.044 -133.8383
16.000000 76.038 -134.4351
16.250000 76.080 -135.1489
16.500000 76.162 -136.0294
16.750000 76.268 -137.1327
17.000000 76.377 -138.3748
17.250000 76.482 -139.6763
17.500000 76.576 -140.9268
17.750000 76.666 -142.0226
18.000000 76.757 -142.9529
18.250000 76.855 -143.7104
18.500000 76.961 -144.3512
18.750000 77.070 -144.8957
19.000000 77.177 -145.3623
19.250000 77.276 -145.7322
19.500000 77.367 -145.9937
19.750000 77.455 -146.1438
20.000000 77.544 -146.2179
20.299999 77.651 -146.3030
20.600000 77.752 -146.4686
20.900000 77.831 -146.7650
21.200001 77.869 -147.1543
21.400000 77.870 -147.3957
21.799999 77.824 -147.7192
22.000000 77.791 -147.7704
22.400000 77.734 -147.6951
22.700001 77.716 -147.6319
23.000000 77.717 -147.7162
23.299999 77.725 -147.9990
23.600000 77.729 -148.4508
24.000000 77.726 -149.2158
24.299999 77.724 -149.8419
24.700001 77.735 -150.7333
25.000000 77.756 -151.4744
25.400000 77.792 -152.5780
25.799999 77.823 -153.7394
26.200001 77.843 -154.8080
26.500000 77.856 -155.4696
26.900000 77.884 -156.1369
27.200001 77.918 -156.5122
27.600000 77.985 -156.9390
28.000000 78.063 -157.3906
28.500000 78.142 -158.0490
29.000000 78.169 -158.6716
29.500000 78.147 -159.0166
30.000000 78.122 -159.0078
30.400000 78.128 -158.9129
30.700001 78.149 -158.9187
31.100000 78.182 -159.1285
31.500000 78.202 -159.5471
32.000000 78.200 -160.2033
32.500000 78.183 -160.8664
33.000000 78.174 -161.5486
33.500000 78.172 -162.3031
34.000000 78.168 -163.0844
34.500000 78.163 -163.7946
35.000000 78.166 -164.3930
35.500000 78.179 -164.8936
36.000000 78.201 -165.3199
36.500000 78.227 -165.6956
37.000000 78.254 -166.0465
37.500000 78.273 -166.3773
38.200001 78.287 -166.7926
38.700001 78.290 -167.0803
39.500000 78.282 -167.5787
40.000000 78.272 -167.8878
40.599998 78.267 -168.2781
41.200001 78.270 -168.7846
41.799999 78.264 -169.3901
42.500000 78.242 -170.0358
43.099998 78.230 -170.4636
43.700001 78.232 -170.8441
44.400002 78.242 -171.3083
45.000000 78.243 -171.7242
45.500000 78.234 -172.0382
46.200001 78.214 -172.3660
46.799999 78.205 -172.6000
47.500000 78.197 -172.9828
48.200001 78.162 -173.4234
48.700001 78.124 -173.6219
49.400002 78.089 -173.6631
50.000000 78.098 -173.6611
50.799999 78.134 -173.8872
51.500000 78.144 -174.1609
52.200001 78.145 -174.2550
53.000000 78.169 -174.2078
53.799999 78.217 -174.2123
54.500000 78.269 -174.3481
55.200001 78.317 -174.6721
56.000000 78.351 -175.2010
57.000000 78.375 -175.9391
58.000000 78.391 -176.8028
59.000000 78.385 -177.6907
60.000000 78.365 -178.3557
60.799999 78.370 -178.7677
61.500000 78.378 -179.2085
62.200001 78.367 -179.6371
63.000000 78.350 179.9858
64.000000 78.330 179.4850
65.000000 78.301 179.0578
66.000000 78.291 178.5855
67.000000 78.265 178.0416
68.000000 78.247 177.6141
69.000000 78.229 177.1351
70.000000 78.207 176.7731
71.000000 78.196 176.3250
72.000000 78.158 175.9089
73.000000 78.136 175.5953
74.000000 78.110 175.1290
75.000000 78.068 174.8066
76.199997 78.052 174.4656
77.500000 78.026 173.9241
78.800003 77.991 173.5381
80.000000 77.966 173.0723
81.199997 77.920 172.7252
82.500000 77.892 172.3086
83.800003 77.845 171.9706
85.000000 77.824 171.6409
86.199997 77.786 171.2966
87.500000 77.752 170.9265
88.500000 77.716 170.6729
90.000000 77.676 170.3487
91.199997 77.645 170.0762
92.500000 77.603 169.8252
93.800003 77.573 169.5880
95.000000 77.535 169.3892
96.199997 77.520 169.1610
97.500000 77.490 168.8399
98.800003 77.466 168.5167
100.000000 77.435 168.3066
101.500000 77.409 167.9285
103.000000 77.361 167.6775
104.400002 77.313 167.3517
106.000000 77.258 167.1481
107.500000 77.216 166.9521
109.000000 77.169 166.7328
110.599998 77.133 166.7263
112.000000 77.108 166.5860
113.800003 77.100 166.4856
115.000000 77.093 166.4160
117.199997 77.111 166.0456
118.000000 77.112 165.8934
120.599998 77.093 165.1828
122.000000 77.063 164.8216
124.099998 77.028 164.2561
125.000000 77.007 164.0413
126.500000 76.968 163.6926
128.000000 76.911 163.4159
131.500000 76.827 162.8581
132.000000 76.818 162.7773
134.000000 76.782 162.4473
136.000000 76.725 162.0059
138.000000 76.669 161.7050
140.000000 76.614 161.3412
143.000000 76.535 160.9106
145.000000 76.482 160.5921
147.500000 76.396 160.2860
150.000000 76.324 160.0049
152.500000 76.253 159.7609
155.000000 76.198 159.5367
157.500000 76.130 159.2185
160.000000 76.051 159.0440
162.500000 75.988 158.7533
165.000000 75.923 158.5009
167.500000 75.848 158.3625
170.000000 75.784 158.1282
172.500000 75.717 157.8598
175.000000 75.647 157.7401
177.500000 75.578 157.5687
180.000000 75.504 157.3870
182.500000 75.427 157.3580
185.000000 75.367 157.2395
187.500000 75.302 157.1655
190.000000 75.235 157.1882
192.500000 75.182 157.1355
195.000000 75.117 157.2677
197.500000 75.076 157.2394
200.000000 75.040 157.1767
203.000000 75.021 157.1060
206.000000 74.978 156.8922
209.000000 74.906 156.6564
212.000000 74.847 156.4678
214.000000 74.819 156.3380
218.000000 74.714 156.0800
220.000000 74.663 156.0355
224.000000 74.577 155.8528
227.000000 74.504 155.7315
230.000000 74.436 155.7076
233.000000 74.372 155.6522
236.000000 74.306 155.6307
240.000000 74.222 155.6046
243.000000 74.159 155.5494
247.000000 74.068 155.4769
250.000000 73.997 155.5814
254.000000 73.923 155.4691
258.000000 73.842 155.4451
262.000000 73.752 155.5078
265.000000 73.694 155.4935
269.000000 73.633 155.5241
272.000000 73.534 155.4356
276.000000 73.474 155.5263
280.000000 73.392 155.5792
285.000000 73.315 155.7331
290.000000 73.209 155.8245
295.000000 73.122 155.8593
300.000000 73.018 155.9026
304.000000 72.969 156.1267
307.000000 72.909 156.1140
311.000000 72.824 156.1775
315.000000 72.771 156.4000
320.000000 72.680 156.4367
325.000000 72.609 156.6773
330.000000 72.536 156.7401
335.000000 72.420 156.9976
340.000000 72.356 157.1839
345.000000 72.285 157.4199
350.000000 72.212 157.4860
355.000000 72.138 157.5730
360.000000 72.067 157.9336
365.000000 71.976 158.0507
370.000000 71.909 158.3867
375.000000 71.831 158.5271
382.000000 71.734 158.7328
387.000000 71.682 159.1406
395.000000 71.564 159.4836
400.000000 71.510 159.7485
406.000000 71.444 159.9875
412.000000 71.346 160.2769
418.000000 71.266 160.8369
425.000000 71.188 160.9427
431.000000 71.125 161.2793
437.000000 71.047 161.4603
444.000000 70.987 162.0045
450.000000 70.900 162.1845
455.000000 70.845 162.7381
462.000000 70.783 162.9414
468.000000 70.709 163.2448
475.000000 70.629 163.7578
482.000000 70.585 164.2994
487.000000 70.530 164.6665
494.000000 70.476 164.9662
500.000000 70.424 165.3908
508.000000 70.323 165.9207
515.000000 70.281 166.2472
522.000000 70.207 166.7316
530.000000 70.124 167.2837
538.000000 70.063 167.7373
545.000000 70.024 168.0725
552.000000 69.975 168.6158
560.000000 69.923 169.3721
570.000000 69.841 170.0580
580.000000 69.752 170.3773
590.000000 69.686 171.3149
600.000000 69.627 171.8707
608.000000 69.613 172.4390
615.000000 69.506 172.8527
622.000000 69.517 173.4908
630.000000 69.477 173.9710
640.000000 69.412 174.6901
650.000000 69.352 175.4243
660.000000 69.325 176.0385
670.000000 69.251 176.9307
680.000000 69.230 177.6922
690.000000 69.225 178.2010
700.000000 69.169 178.9906
710.000000 69.106 179.8448
720.000000 69.097 -179.4670
730.000000 69.063 -178.8042
740.000000 69.027 -177.7428
750.000000 69.031 -177.1493
762.000000 69.033 -176.4140
775.000000 68.971 -175.3239
788.000000 68.978 -174.6317
800.000000 68.955 -173.6392
812.000000 69.000 -172.6774
825.000000 68.968 -171.8900
838.000000 68.970 -170.7508
850.000000 69.000 -170.0538
862.000000 69.010 -168.9332
875.000000 69.030 -168.3815
885.000000 69.031 -167.3805
900.000000 69.049 -166.3501
912.000000 69.121 -165.6207
925.000000 69.133 -164.7589
938.000000 69.162 -163.8598
950.000000 69.223 -163.2940
962.000000 69.285 -162.5578
975.000000 69.373 -161.7870
988.000000 69.410 -160.8035
1000.000000 69.512 -160.7890
1015.000000 69.532 -159.3194
1030.000000 69.625 -158.4640
1044.000000 69.743 -157.6426
1060.000000 69.869 -156.9679
1075.000000 69.967 -156.4850
1090.000000 70.069 -155.9600
1106.000000 70.178 -155.6455
1120.000000 70.234 -154.9019
1138.000000 70.344 -154.8648
1150.000000 70.435 -154.6952
1172.000000 70.563 -154.0172
1180.000000 70.605 -154.0501
1206.000000 70.712 -153.3835
1220.000000 70.794 -152.9543
1241.000000 70.877 -153.0420
1250.000000 70.936 -152.8578
1265.000000 70.957 -152.7431
1280.000000 71.060 -152.6057
1315.000000 71.158 -152.1765
1320.000000 71.203 -152.0830
1340.000000 71.257 -151.8697
1360.000000 71.309 -151.7110
1380.000000 71.398 -151.3307
1400.000000 71.461 -151.1625
1430.000000 71.559 -150.7963
1450.000000 71.621 -150.5277
1475.000000 71.670 -150.3468
1500.000000 71.774 -150.1973
1525.000000 71.824 -149.8574
1550.000000 71.942 -149.3242
1575.000000 71.973 -149.1654
1600.000000 72.135 -148.6828
1625.000000 72.157 -148.4965
1650.000000 72.253 -148.2454
1675.000000 72.328 -148.0278
1700.000000 72.458 -148.0125
1725.000000 72.555 -147.8796
1750.000000 72.599 -147.8905
1775.000000 72.714 -147.4912
1800.000000 72.795 -147.4174
1825.000000 72.874 -147.5058
1850.000000 72.955 -147.6989
1875.000000 73.053 -147.5977
1900.000000 73.142 -147.6810
1925.000000 73.170 -147.5182
1950.000000 73.236 -147.7387
1975.000000 73.323 -147.4810
2000.000000 73.427 -147.9150
2030.000000 73.574 -147.0837
2060.000000 73.689 -147.1758
2090.000000 73.881 -147.8575
2120.000000 74.008 -148.5567
2140.000000 74.094 -148.9154
2180.000000 74.163 -150.0206
2200.000000 74.193 -150.3201
2240.000000 74.216 -151.1897
2270.000000 74.208 -151.8261
2300.000000 74.178 -152.1872
2330.000000 74.198 -152.3911
2360.000000 74.199 -152.4692
2400.000000 74.275 -152.6458
2430.000000 74.347 -152.8515
2470.000000 74.445 -153.6449
2500.000000 74.446 -154.3661
2540.000000 74.435 -155.3582
2580.000000 74.471 -156.2738
2620.000000 74.407 -156.9490
2650.000000 74.418 -157.4518
2690.000000 74.349 -157.9508
2720.000000 74.331 -158.5840
2760.000000 74.289 -159.0810
2800.000000 74.227 -159.7490
2850.000000 74.118 -160.6958
2900.000000 73.964 -161.2983
2950.000000 73.809 -161.6822
3000.000000 73.597 -161.6210
3040.000000 73.568 -161.9747
3070.000000 73.462 -162.0060
3110.000000 73.355 -162.0053
3150.000000 73.235 -161.9215
3200.000000 73.072 -161.4810
3250.000000 72.926 -161.1208
3300.000000 72.821 -160.6398
3350.000000 72.746 -160.2354
3400.000000 72.656 -159.7914
3450.000000 72.565 -159.1943
3500.000000 72.529 -158.6297
3550.000000 72.420 -158.0594
3600.000000 72.323 -157.7434
3650.000000 72.204 -156.9404
3700.000000 72.131 -156.1516
3750.000000 72.022 -155.2539
3820.000000 71.950 -153.7089
3870.000000 71.911 -152.3989
3950.000000 71.940 -150.5566
4000.000000 71.919 -150.3261
4060.000000 71.968 -148.0088
4120.000000 72.066 -146.6920
4180.000000 72.149 -145.8883
4250.000000 72.284 -144.6135
4310.000000 72.432 -143.7098
4370.000000 72.548 -142.8066
4440.000000 72.642 -142.1967
4500.000000 72.796 -141.2739
4550.000000 72.940 -141.0871
4620.000000 73.090 -140.2299
4680.000000 73.217 -139.5735
4750.000000 73.485 -139.3783
4820.000000 73.717 -139.0918
4870.000000 73.884 -139.2315
4940.000000 74.102 -139.9094
5000.000000 74.225 -140.8717
5080.000000 74.302 -141.8118
5150.000000 74.387 -142.7099
5220.000000 74.389 -143.2536
5300.000000 74.417 -143.7870
5380.000000 74.322 -144.0210
5450.000000 74.380 -143.8276
5520.000000 74.340 -144.3430
5600.000000 74.381 -144.2334
5700.000000 74.390 -144.1355
5800.000000 74.416 -144.1174
5900.000000 74.415 -143.6650
6000.000000 74.517 -143.1422
6080.000000 74.554 -142.8070
6150.000000 74.583 -142.1674
6220.000000 74.712 -141.8240
6300.000000 74.857 -141.4417
6400.000000 75.065 -141.2886
6500.000000 75.373 -141.0609
6600.000000 75.686 -141.4291
6700.000000 76.033 -142.1818
6800.000000 76.322 -143.8307
6900.000000 76.621 -146.0323
7000.000000 76.783 -147.9455
7100.000000 77.038 -150.0790
7200.000000 77.344 -152.8794
7300.000000 77.594 -156.9041
7400.000000 77.670 -161.9090
7500.000000 77.512 -166.7861
7620.000000 77.137 -172.1381
7750.000000 76.590 -176.7832
7880.000000 76.009 179.4067
8000.000000 75.410 177.1382
8120.000000 74.781 173.8201
8250.000000 73.901 171.6152
8380.000000 73.053 170.7662
8500.000000 72.113 171.3273
8620.000000 71.365 173.9688
8750.000000 70.858 177.3228
8850.000000 70.674 -179.5276
9000.000000 70.552 -175.7352
9120.000000 70.551 -173.9764
9250.000000 70.591 -171.3587
9380.000000 70.974 -169.8239
9500.000000 71.294 -169.7412
9620.000000 71.767 -171.1159
9750.000000 72.218 -174.2998
9880.000000 72.500 -178.7407
10000.000000 72.419 176.2345
10150.000000 72.167 169.5042
10300.000000 71.758 161.9037
10440.000000 70.736 152.4544
10600.000000 68.139 147.5534
10750.000000 66.631 153.6772
10900.000000 65.709 157.4628
11060.000000 64.337 160.3455
11200.000000 63.003 165.4750
11380.000000 62.189 176.9232
11500.000000 61.470 -177.3806
11720.000000 61.596 -163.8560
11800.000000 61.758 -161.2196
12060.000000 62.761 -148.1200
12200.000000 63.135 -145.4220
12410.000000 63.676 -141.8931
12500.000000 64.036 -139.0025
12650.000000 64.557 -135.5431
12800.000000 65.372 -132.4697
13150.000000 68.096 -133.3837
13200.000000 68.453 -134.4460
13400.000000 69.676 -144.3226
13600.000000 68.894 -155.1084
13800.000000 68.116 -152.6954
14000.000000 68.909 -148.8495
14300.000000 70.680 -150.6593
14500.000000 71.998 -159.0968
14750.000000 72.609 -170.2294
15000.000000 73.252 -177.4289
15250.000000 74.768 170.2183
15500.000000 75.963 148.3960
15750.000000 75.716 118.3013
16000.000000 72.698 85.6118
16250.000000 66.363 74.9838
16500.000000 63.331 93.1554
16750.000000 62.642 98.1197
17000.000000 62.882 105.0132
17250.000000 62.751 98.4034
17500.000000 61.790 91.7229
17750.000000 60.877 86.1105
18000.000000 59.587 79.3908
18250.000000 58.289 74.3616
18500.000000 56.278 70.4087
18750.000000 55.750 66.5829
19000.000000 54.901 63.4769
19250.000000 53.542 63.3580
19500.000000 51.201 63.4604
19750.000000 50.915 71.2029
20000.000000 50.999 57.9027
20300.000000 51.663 56.6149
20600.000000 52.236 35.3502
20900.000000 50.300 -8.3469
21200.000000 46.202 -42.0183
21400.000000 41.909 -62.8475
21800.000000 30.431 -116.5325
22000.000000 24.544 -151.5747
22400.000000 16.477 60.8486
22700.000000 9.146 -61.6655
23000.000000 14.610 -140.0352
23300.000000 16.761 -156.5703
23600.000000 24.812 -134.3984

