* Measurement data measured by REW V5.20.13
* Source: Microphone (USB Sound Device        ), MICROPHONE (Master Volume), L, volume: 0,250
* Format: 256k Log Swept Sine, 1 sweep at -12,0 dBFS with no timing reference
* Dated: 00:26:48 28-02-2024
* REW Settings:
*  C-weighting compensation: Off
*  Target level: 75.0 dB
* Note: ; 
* Measurement: Godmod 500bd foam notip L
* Smoothing: None
* Frequency Step: 1/48 octave
* Start Frequency: 1.000 Hz
*
* Freq(Hz) SPL(dB) Phase(degrees)
1.000000 76.676 120.3867
1.015000 76.498 119.4202
1.030000 76.312 118.4415
1.044000 76.133 117.5162
1.060000 75.921 116.4435
1.075000 75.714 115.4221
1.090000 75.499 114.3845
1.106000 75.261 113.2768
1.120000 75.046 112.4026
1.138000 74.764 111.4156
1.150000 74.570 110.8295
1.172000 74.207 109.8702
1.180000 74.071 109.5497
1.206000 73.620 108.5688
1.220000 73.370 108.0559
1.241000 72.985 107.2674
1.250000 72.817 106.9121
1.265000 72.532 106.2828
1.280000 72.241 105.5916
1.315000 71.540 103.6395
1.320000 71.437 103.3122
1.340000 71.020 101.8562
1.360000 70.592 100.1335
1.380000 70.155 98.1025
1.400000 69.707 95.7213
1.430000 69.016 91.4014
1.450000 68.543 87.9619
1.475000 67.929 82.9379
1.500000 67.219 76.9152
1.525000 66.416 69.9757
1.550000 65.542 62.2609
1.575000 64.619 53.9118
1.600000 63.670 45.0698
1.625000 62.716 35.8761
1.650000 61.781 26.4720
1.675000 60.885 16.9986
1.700000 60.052 7.5973
1.725000 59.303 -1.5908
1.750000 58.662 -10.4243
1.775000 58.149 -18.7621
1.800000 57.787 -26.4629
1.825000 57.599 -33.3855
1.850000 57.608 -39.5826
1.875000 57.817 -45.4532
1.900000 58.199 -51.0262
1.925000 58.730 -56.3124
1.950000 59.382 -61.3226
1.975000 60.130 -66.0674
2.000000 60.947 -70.5575
2.030000 61.984 -75.6246
2.060000 63.039 -80.3590
2.090000 64.066 -84.7791
2.120000 65.022 -88.9035
2.140000 65.597 -91.4980
2.180000 66.538 -96.3393
2.200000 66.877 -98.5960
2.240000 67.407 -102.5424
2.270000 67.724 -104.9820
2.300000 67.980 -107.0325
2.330000 68.181 -108.7452
2.360000 68.335 -110.1712
2.400000 68.479 -111.7152
2.430000 68.550 -112.6715
2.470000 68.608 -113.7750
2.500000 68.634 -114.5403
2.540000 68.659 -115.5749
2.580000 68.679 -116.7137
2.620000 68.645 -117.8205
2.650000 68.582 -118.5815
2.690000 68.457 -119.4731
2.720000 68.338 -120.0285
2.760000 68.157 -120.5871
2.800000 67.959 -120.9025
2.850000 67.706 -120.8962
2.900000 67.469 -120.3748
2.950000 67.258 -119.2462
3.000000 67.001 -117.3650
3.040000 66.766 -115.3978
3.070000 66.584 -113.7109
3.110000 66.348 -111.2507
3.150000 66.133 -108.6303
3.200000 65.920 -105.2645
3.250000 65.801 -101.9597
3.300000 65.807 -98.8859
3.350000 65.953 -95.7322
3.400000 66.213 -92.3160
3.450000 66.560 -88.8088
3.500000 66.964 -85.3818
3.550000 67.397 -82.2065
3.600000 67.831 -79.4542
3.650000 68.238 -77.2963
3.700000 68.619 -75.8342
3.750000 69.028 -74.9333
3.820000 69.624 -74.4174
3.870000 70.048 -74.4459
3.950000 70.684 -74.9031
4.000000 71.034 -75.2906
4.060000 71.390 -75.7715
4.120000 71.697 -76.5521
4.180000 71.963 -77.5931
4.250000 72.226 -79.0031
4.310000 72.415 -80.2651
4.370000 72.572 -81.4708
4.440000 72.716 -82.7648
4.500000 72.795 -83.9329
4.550000 72.834 -84.9241
4.620000 72.856 -86.2793
4.680000 72.851 -87.3554
4.750000 72.826 -88.4395
4.820000 72.776 -89.3344
4.870000 72.714 -89.9069
4.940000 72.604 -90.5963
5.000000 72.498 -91.0654
5.080000 72.358 -91.4855
5.150000 72.251 -91.6285
5.220000 72.137 -91.5113
5.300000 72.002 -91.1250
5.380000 71.881 -90.5755
5.450000 71.803 -90.0480
5.520000 71.764 -89.5323
5.600000 71.758 -88.7859
5.700000 71.798 -87.7390
5.800000 71.878 -86.8441
5.900000 71.989 -86.3640
6.000000 72.152 -86.1873
6.080000 72.305 -86.2376
6.150000 72.440 -86.4318
6.220000 72.562 -86.7750
6.300000 72.690 -87.3888
6.400000 72.847 -88.4717
6.500000 72.989 -89.7728
6.600000 73.099 -91.1507
6.700000 73.174 -92.6613
6.800000 73.221 -94.3099
6.900000 73.246 -95.9579
7.000000 73.252 -97.4896
7.100000 73.228 -98.9856
7.200000 73.188 -100.4173
7.300000 73.145 -101.7158
7.400000 73.106 -102.8327
7.500000 73.060 -103.7996
7.620000 73.015 -104.8064
7.750000 73.005 -105.7430
7.880000 73.027 -106.4619
8.000000 73.076 -107.0642
8.120000 73.159 -107.7290
8.250000 73.288 -108.4513
8.380000 73.440 -109.2452
8.500000 73.588 -110.1152
8.620000 73.752 -111.0973
8.750000 73.929 -112.2343
8.850000 74.055 -113.1422
9.000000 74.236 -114.5984
9.120000 74.370 -115.7525
9.250000 74.498 -116.9285
9.380000 74.612 -118.0637
9.500000 74.709 -119.0229
9.620000 74.802 -119.8630
9.750000 74.893 -120.6630
9.880000 74.986 -121.3615
10.000000 75.075 -121.9072
10.150000 75.188 -122.4698
10.300000 75.308 -122.9771
10.440000 75.426 -123.3923
10.600000 75.564 -123.8356
10.750000 75.691 -124.2610
10.900000 75.818 -124.6802
11.060000 75.943 -125.1249
11.200000 76.046 -125.5149
11.380000 76.167 -125.9896
11.500000 76.239 -126.2839
11.720000 76.360 -126.7808
11.800000 76.400 -126.9441
12.060000 76.521 -127.4266
12.200000 76.582 -127.6755
12.410000 76.666 -128.0397
12.500000 76.699 -128.2045
12.650000 76.751 -128.4884
12.800000 76.796 -128.7823
13.150000 76.876 -129.5095
13.200000 76.885 -129.6129
13.400000 76.913 -130.0240
13.600000 76.935 -130.4251
13.800000 76.952 -130.8092
14.000000 76.971 -131.2046
14.300000 77.003 -131.8403
14.500000 77.028 -132.3317
14.750000 77.057 -133.0307
15.000000 77.083 -133.8214
15.250000 77.101 -134.6655
15.500000 77.114 -135.5160
15.750000 77.126 -136.3489
16.000000 77.145 -137.1420
16.250000 77.174 -137.9178
16.500000 77.215 -138.6906
16.750000 77.266 -139.4863
17.000000 77.322 -140.3012
17.250000 77.380 -141.1189
17.500000 77.436 -141.9137
17.750000 77.492 -142.6501
18.000000 77.548 -143.3234
18.250000 77.609 -143.9294
18.500000 77.673 -144.4924
18.750000 77.739 -145.0258
19.000000 77.803 -145.5414
19.250000 77.862 -146.0348
19.500000 77.913 -146.4899
19.750000 77.957 -146.8946
20.000000 77.996 -147.2359
20.299999 78.041 -147.5819
20.600000 78.085 -147.8926
20.900000 78.128 -148.2133
21.200001 78.165 -148.5804
21.400000 78.183 -148.8504
21.799999 78.200 -149.4147
22.000000 78.199 -149.6876
22.400000 78.186 -150.1751
22.700001 78.175 -150.4929
23.000000 78.170 -150.8041
23.299999 78.171 -151.1533
23.600000 78.176 -151.5631
24.000000 78.179 -152.1941
24.299999 78.175 -152.6788
24.700001 78.168 -153.2493
25.000000 78.171 -153.5835
25.400000 78.204 -153.9371
25.799999 78.280 -154.3314
26.200001 78.384 -154.9291
26.500000 78.461 -155.5378
26.900000 78.538 -156.4817
27.200001 78.572 -157.1748
27.600000 78.590 -157.9363
28.000000 78.602 -158.4528
28.500000 78.636 -158.8862
29.000000 78.689 -159.3382
29.500000 78.729 -159.8878
30.000000 78.744 -160.4232
30.400000 78.745 -160.7834
30.700001 78.745 -161.0268
31.100000 78.747 -161.3586
31.500000 78.748 -161.7228
32.000000 78.744 -162.2110
32.500000 78.739 -162.7090
33.000000 78.737 -163.2287
33.500000 78.737 -163.7889
34.000000 78.736 -164.3631
34.500000 78.734 -164.9039
35.000000 78.736 -165.3960
35.500000 78.744 -165.8537
36.000000 78.756 -166.2912
36.500000 78.767 -166.7112
37.000000 78.774 -167.1029
37.500000 78.774 -167.4362
38.200001 78.773 -167.7490
38.700001 78.784 -167.8951
39.500000 78.827 -168.2169
40.000000 78.856 -168.5420
40.599998 78.884 -169.0322
41.200001 78.901 -169.5813
41.799999 78.908 -170.1523
42.500000 78.905 -170.7908
43.099998 78.902 -171.2816
43.700001 78.903 -171.7369
44.400002 78.910 -172.2723
45.000000 78.913 -172.7467
45.500000 78.910 -173.1247
46.200001 78.902 -173.5869
46.799999 78.899 -173.9447
47.500000 78.898 -174.3940
48.200001 78.887 -174.8611
48.700001 78.874 -175.1534
49.400002 78.863 -175.4959
50.000000 78.865 -175.8063
50.799999 78.866 -176.3163
51.500000 78.855 -176.7618
52.200001 78.843 -177.1453
53.000000 78.834 -177.5822
53.799999 78.819 -178.0075
54.500000 78.809 -178.3373
55.200001 78.804 -178.7001
56.000000 78.791 -179.1372
57.000000 78.776 -179.6034
58.000000 78.769 179.8692
59.000000 78.749 179.3744
60.000000 78.736 178.9568
60.799999 78.727 178.5949
61.500000 78.715 178.2816
62.200001 78.701 177.9796
63.000000 78.684 177.6321
64.000000 78.661 177.2179
65.000000 78.646 176.7901
66.000000 78.626 176.3095
67.000000 78.601 175.9016
68.000000 78.584 175.5204
69.000000 78.566 175.1374
70.000000 78.547 174.7848
71.000000 78.528 174.4141
72.000000 78.504 174.0590
73.000000 78.482 173.7043
74.000000 78.458 173.3334
75.000000 78.433 172.9828
76.199997 78.405 172.5840
77.500000 78.374 172.1631
78.800003 78.349 171.7997
80.000000 78.326 171.3596
81.199997 78.291 170.9910
82.500000 78.255 170.5387
83.800003 78.216 170.2608
85.000000 78.202 169.8425
86.199997 78.156 169.4728
87.500000 78.128 169.1412
88.500000 78.101 168.8483
90.000000 78.071 168.4326
91.199997 78.035 168.0730
92.500000 77.998 167.7731
93.800003 77.967 167.4663
95.000000 77.931 167.1651
96.199997 77.898 166.9081
97.500000 77.862 166.5715
98.800003 77.820 166.2800
100.000000 77.787 166.0544
101.500000 77.749 165.6740
103.000000 77.696 165.3812
104.400002 77.655 165.0861
106.000000 77.611 164.7261
107.500000 77.560 164.3973
109.000000 77.511 164.1376
110.599998 77.461 163.8652
112.000000 77.412 163.6518
113.800003 77.353 163.3870
115.000000 77.313 163.2193
117.199997 77.243 162.9032
118.000000 77.215 162.7947
120.599998 77.137 162.5190
122.000000 77.086 162.3907
124.099998 77.007 162.2554
125.000000 76.980 162.2921
126.500000 76.947 162.3060
128.000000 76.918 162.4726
131.500000 76.960 162.3964
132.000000 76.970 162.3004
134.000000 76.972 161.7485
136.000000 76.936 161.1436
138.000000 76.888 160.6866
140.000000 76.842 160.2135
143.000000 76.753 159.7313
145.000000 76.692 159.4415
147.500000 76.602 159.0674
150.000000 76.539 158.7762
152.500000 76.466 158.4610
155.000000 76.406 158.2708
157.500000 76.324 158.0881
160.000000 76.242 157.8284
162.500000 76.173 157.6198
165.000000 76.106 157.4655
167.500000 76.052 157.3385
170.000000 75.986 157.1398
172.500000 75.932 156.9900
175.000000 75.878 156.7464
177.500000 75.804 156.5147
180.000000 75.730 156.3383
182.500000 75.681 156.1777
185.000000 75.615 155.9991
187.500000 75.557 155.9061
190.000000 75.482 155.8695
192.500000 75.411 155.6710
195.000000 75.356 155.5054
197.500000 75.304 155.4652
200.000000 75.239 155.3641
203.000000 75.160 155.1996
206.000000 75.098 155.1757
209.000000 75.004 155.1505
212.000000 74.936 155.0724
214.000000 74.892 154.9791
218.000000 74.794 154.9331
220.000000 74.751 154.9327
224.000000 74.665 154.8287
227.000000 74.589 154.8391
230.000000 74.516 154.8965
233.000000 74.439 154.8873
236.000000 74.391 154.9174
240.000000 74.301 154.9995
243.000000 74.241 155.1880
247.000000 74.182 155.1511
250.000000 74.141 155.2105
254.000000 74.052 155.0868
258.000000 74.006 155.1213
262.000000 73.919 155.0422
265.000000 73.846 154.9070
269.000000 73.788 155.1523
272.000000 73.737 155.0990
276.000000 73.641 155.1685
280.000000 73.558 155.2169
285.000000 73.463 155.3393
290.000000 73.407 155.5285
295.000000 73.310 155.4519
300.000000 73.220 155.5535
304.000000 73.162 155.6989
307.000000 73.086 155.7323
311.000000 73.030 155.8954
315.000000 72.957 155.8710
320.000000 72.886 156.1435
325.000000 72.787 156.3154
330.000000 72.722 156.4473
335.000000 72.629 156.6205
340.000000 72.565 156.7648
345.000000 72.493 156.8920
350.000000 72.434 157.2291
355.000000 72.339 157.3661
360.000000 72.272 157.5366
365.000000 72.193 157.7318
370.000000 72.144 157.9955
375.000000 72.066 158.2824
382.000000 71.965 158.5143
387.000000 71.902 158.8032
395.000000 71.794 159.0834
400.000000 71.750 159.4153
406.000000 71.680 159.8167
412.000000 71.585 159.9330
418.000000 71.509 160.4344
425.000000 71.442 160.5966
431.000000 71.369 161.0273
437.000000 71.310 161.2497
444.000000 71.236 161.6124
450.000000 71.190 161.9408
455.000000 71.118 162.2644
462.000000 71.049 162.6871
468.000000 70.985 162.9755
475.000000 70.921 163.4433
482.000000 70.853 163.9055
487.000000 70.771 164.0419
494.000000 70.735 164.4691
500.000000 70.706 164.8845
508.000000 70.613 165.4871
515.000000 70.550 165.7798
522.000000 70.501 166.0922
530.000000 70.436 166.6882
538.000000 70.367 167.0396
545.000000 70.314 167.4851
552.000000 70.291 167.8978
560.000000 70.232 168.5357
570.000000 70.150 169.1412
580.000000 70.072 169.6641
590.000000 69.994 170.4560
600.000000 69.987 171.2109
608.000000 69.919 171.7370
615.000000 69.874 172.1361
622.000000 69.855 172.5870
630.000000 69.790 173.0135
640.000000 69.738 173.7445
650.000000 69.705 174.3263
660.000000 69.637 175.1012
670.000000 69.636 175.5568
680.000000 69.558 176.1654
690.000000 69.536 177.0326
700.000000 69.514 177.8987
710.000000 69.460 178.2550
720.000000 69.474 179.1912
730.000000 69.429 -179.7700
740.000000 69.367 -179.5162
750.000000 69.381 -178.9126
762.000000 69.333 -177.7890
775.000000 69.340 -177.0063
788.000000 69.342 -176.0320
800.000000 69.319 -175.2560
812.000000 69.291 -174.3322
825.000000 69.319 -173.4081
838.000000 69.289 -172.5607
850.000000 69.305 -171.6519
862.000000 69.343 -170.7764
875.000000 69.343 -170.0226
885.000000 69.391 -169.3988
900.000000 69.404 -168.5266
912.000000 69.452 -167.5395
925.000000 69.503 -166.6339
938.000000 69.520 -166.0577
950.000000 69.557 -165.2107
962.000000 69.603 -164.5182
975.000000 69.694 -163.9737
988.000000 69.750 -163.1115
1000.000000 69.819 -161.7985
1015.000000 69.890 -161.7125
1030.000000 69.958 -161.1252
1044.000000 70.042 -160.5952
1060.000000 70.097 -159.9417
1075.000000 70.205 -159.2999
1090.000000 70.267 -158.9808
1106.000000 70.358 -158.2997
1120.000000 70.454 -157.7973
1138.000000 70.549 -157.4302
1150.000000 70.645 -157.0825
1172.000000 70.734 -156.7592
1180.000000 70.758 -156.4370
1206.000000 70.923 -155.9742
1220.000000 70.985 -155.8557
1241.000000 71.079 -155.5607
1250.000000 71.144 -155.1882
1265.000000 71.174 -155.0636
1280.000000 71.255 -154.7700
1315.000000 71.394 -154.2975
1320.000000 71.396 -154.4521
1340.000000 71.471 -154.0393
1360.000000 71.561 -153.7914
1380.000000 71.648 -153.5238
1400.000000 71.709 -153.4176
1430.000000 71.855 -153.3398
1450.000000 71.952 -152.9943
1475.000000 72.033 -152.8913
1500.000000 72.113 -152.7858
1525.000000 72.223 -152.4684
1550.000000 72.278 -152.5435
1575.000000 72.385 -152.4376
1600.000000 72.454 -152.8549
1625.000000 72.551 -152.4119
1650.000000 72.638 -152.3762
1675.000000 72.711 -152.4588
1700.000000 72.808 -152.3839
1725.000000 72.895 -152.5972
1750.000000 72.967 -152.7449
1775.000000 73.015 -152.7486
1800.000000 73.092 -152.9865
1825.000000 73.153 -153.0865
1850.000000 73.210 -153.2873
1875.000000 73.268 -153.4399
1900.000000 73.295 -153.5007
1925.000000 73.381 -153.8815
1950.000000 73.422 -154.0753
1975.000000 73.481 -154.2046
2000.000000 73.432 -154.2462
2030.000000 73.557 -154.7188
2060.000000 73.596 -155.0780
2090.000000 73.639 -155.1502
2120.000000 73.719 -155.5317
2140.000000 73.703 -155.8053
2180.000000 73.725 -156.0578
2200.000000 73.769 -156.4434
2240.000000 73.777 -156.6154
2270.000000 73.821 -156.9473
2300.000000 73.833 -157.2819
2330.000000 73.818 -157.7387
2360.000000 73.857 -157.8069
2400.000000 73.855 -158.3156
2430.000000 73.860 -158.3344
2470.000000 73.861 -159.1873
2500.000000 73.865 -159.1337
2540.000000 73.801 -159.1928
2580.000000 73.854 -159.2477
2620.000000 73.911 -159.6075
2650.000000 73.915 -159.9772
2690.000000 73.954 -160.7124
2720.000000 73.942 -161.2415
2760.000000 73.913 -161.7311
2800.000000 73.846 -162.3918
2850.000000 73.768 -162.9196
2900.000000 73.672 -163.4907
2950.000000 73.521 -163.9698
3000.000000 73.363 -163.7192
3040.000000 73.359 -164.3329
3070.000000 73.279 -164.3136
3110.000000 73.221 -164.3684
3150.000000 73.149 -163.9901
3200.000000 73.059 -164.0650
3250.000000 72.947 -163.9473
3300.000000 72.907 -163.5438
3350.000000 72.839 -163.3058
3400.000000 72.733 -162.9143
3450.000000 72.700 -162.6053
3500.000000 72.637 -162.5845
3550.000000 72.527 -162.6439
3600.000000 72.410 -162.3579
3650.000000 72.306 -161.7630
3700.000000 72.184 -160.7520
3750.000000 72.129 -159.5334
3820.000000 72.139 -158.4536
3870.000000 72.132 -157.3209
3950.000000 72.263 -156.4988
4000.000000 72.428 -154.7999
4060.000000 72.330 -155.5537
4120.000000 72.387 -155.1521
4180.000000 72.446 -154.4941
4250.000000 72.523 -154.1425
4310.000000 72.606 -153.7491
4370.000000 72.726 -153.3656
4440.000000 72.820 -153.3852
4500.000000 72.907 -153.4187
4550.000000 72.965 -153.5945
4620.000000 73.049 -154.0611
4680.000000 73.125 -154.8416
4750.000000 73.147 -155.2121
4820.000000 73.117 -155.8936
4870.000000 73.067 -156.6495
4940.000000 73.012 -156.9129
5000.000000 72.965 -156.6959
5080.000000 72.909 -157.7169
5150.000000 72.772 -158.0477
5220.000000 72.680 -158.0046
5300.000000 72.565 -157.9484
5380.000000 72.460 -158.0998
5450.000000 72.360 -158.0404
5520.000000 72.266 -157.7341
5600.000000 72.149 -157.7650
5700.000000 72.025 -157.0225
5800.000000 71.824 -156.4832
5900.000000 71.686 -155.6897
6000.000000 71.598 -154.6698
6080.000000 71.361 -154.3809
6150.000000 71.288 -153.3109
6220.000000 71.217 -152.4964
6300.000000 71.178 -151.6429
6400.000000 71.049 -149.6720
6500.000000 70.986 -148.6739
6600.000000 70.911 -147.0366
6700.000000 70.882 -145.5279
6800.000000 70.798 -143.7723
6900.000000 70.879 -140.6370
7000.000000 70.978 -138.3827
7100.000000 71.296 -136.1268
7200.000000 71.600 -134.0265
7300.000000 72.091 -132.7185
7400.000000 72.543 -131.6881
7500.000000 73.045 -131.3634
7620.000000 73.705 -131.7011
7750.000000 74.506 -133.0224
7880.000000 75.284 -136.9065
8000.000000 75.916 -141.7926
8120.000000 76.296 -148.6731
8250.000000 76.371 -156.8945
8380.000000 76.052 -165.0089
8500.000000 75.383 -171.3722
8620.000000 74.581 -176.7158
8750.000000 73.477 179.8159
8850.000000 72.523 179.1971
9000.000000 71.289 -179.1344
9120.000000 70.628 -176.4924
9250.000000 70.105 -173.9959
9380.000000 69.781 -171.2437
9500.000000 69.649 -168.4158
9620.000000 69.467 -167.8754
9750.000000 69.210 -167.3101
9880.000000 68.640 -167.1757
10000.000000 67.856 -163.6284
10150.000000 67.045 -153.9241
10300.000000 67.607 -142.2919
10440.000000 68.733 -135.7137
10600.000000 70.433 -133.0018
10750.000000 71.884 -136.0040
10900.000000 72.915 -142.0602
11060.000000 73.371 -149.5191
11200.000000 73.414 -155.0078
11380.000000 73.358 -160.5354
11500.000000 73.330 -164.2510
11720.000000 73.138 -172.1159
11800.000000 72.753 -174.8882
12060.000000 71.490 -178.5565
12200.000000 70.962 -178.0532
12410.000000 70.512 -176.9883
12500.000000 70.484 -175.8395
12650.000000 70.603 -175.1158
12800.000000 70.893 -175.7913
13150.000000 71.702 176.2043
13200.000000 71.837 173.9593
13400.000000 71.436 162.7557
13600.000000 69.847 155.1290
13800.000000 68.562 157.9693
14000.000000 67.929 158.0977
14300.000000 68.179 160.4516
14500.000000 68.117 156.5700
14750.000000 68.032 152.0636
15000.000000 67.328 143.9888
15250.000000 66.211 143.1755
15500.000000 66.100 143.8382
15750.000000 66.386 141.1326
16000.000000 66.570 131.3967
16250.000000 65.285 124.6772
16500.000000 64.303 120.7630
16750.000000 63.051 121.6505
17000.000000 62.707 126.4650
17250.000000 63.572 123.2165
17500.000000 64.381 116.7839
17750.000000 64.344 107.7802
18000.000000 64.140 97.6281
18250.000000 63.546 83.9757
18500.000000 63.123 71.0805
18750.000000 62.091 55.8789
19000.000000 60.757 37.4474
19250.000000 58.869 22.8408
19500.000000 56.095 3.8568
19750.000000 51.943 -7.7440
20000.000000 49.134 -12.8309
20300.000000 42.263 -13.5391
20600.000000 41.761 -17.2893
20900.000000 38.981 -43.3463
21200.000000 31.002 -57.4808
21400.000000 24.146 -54.7670
21800.000000 14.123 -143.6592
22000.000000 12.272 18.2227
22400.000000 19.126 20.1250
22700.000000 14.793 -97.4531
23000.000000 4.536 12.6875
23300.000000 20.924 2.1250
23600.000000 24.796 139.9062

