* Measurement data measured by REW V5.20.13
* Source: Microphone (USB Sound Device        ), MICROPHONE (Master Volume), L, volume: 0,000
* Format: 256k Log Swept Sine, 1 sweep at -12,0 dBFS with no timing reference
* Dated: 12:37:11 04-01-2024
* REW Settings:
*  C-weighting compensation: Off
*  Target level: 75.0 dB
* Note: ; 
* Measurement: Hi-fri Barcelona v2 clear L
* Smoothing: None
* Frequency Step: 1/48 octave
* Start Frequency: 1.000 Hz
*
* Freq(Hz) SPL(dB) Phase(degrees)
1.000000 78.068 121.6203
1.015000 77.883 120.6991
1.030000 77.692 119.7691
1.044000 77.506 118.8929
1.060000 77.285 117.8807
1.075000 77.068 116.9208
1.090000 76.843 115.9495
1.106000 76.592 114.9246
1.120000 76.365 114.1689
1.138000 76.065 113.3992
1.150000 75.859 112.9928
1.172000 75.469 112.4217
1.180000 75.324 112.2576
1.206000 74.838 111.8235
1.220000 74.569 111.6199
1.241000 74.154 111.2989
1.250000 73.972 111.1411
1.265000 73.664 110.8312
1.280000 73.351 110.4411
1.315000 72.596 109.0800
1.320000 72.486 108.8206
1.340000 72.038 107.5833
1.360000 71.581 105.9828
1.380000 71.115 103.9604
1.400000 70.639 101.4572
1.430000 69.910 96.6720
1.450000 69.413 92.7092
1.475000 68.772 86.7450
1.500000 68.030 79.3242
1.525000 67.190 70.5645
1.550000 66.276 60.6841
1.575000 65.312 49.9013
1.600000 64.321 38.4344
1.625000 63.328 26.5016
1.650000 62.357 14.3212
1.675000 61.430 2.1113
1.700000 60.573 -9.9098
1.725000 59.810 -21.5238
1.750000 59.163 -32.5124
1.775000 58.658 -42.6574
1.800000 58.318 -51.7406
1.825000 58.167 -59.5438
1.850000 58.232 -66.0748
1.875000 58.520 -71.8035
1.900000 59.002 -76.8220
1.925000 59.648 -81.2022
1.950000 60.430 -85.0160
1.975000 61.317 -88.3353
2.000000 62.280 -91.2320
2.030000 63.494 -94.2514
2.060000 64.725 -96.8900
2.090000 65.921 -99.2721
2.120000 67.031 -101.5217
2.140000 67.698 -103.0093
2.180000 68.791 -106.1208
2.200000 69.187 -107.8158
2.240000 69.797 -110.9918
2.270000 70.153 -113.0449
2.300000 70.433 -114.8517
2.330000 70.646 -116.4442
2.360000 70.802 -117.8544
2.400000 70.938 -119.5064
2.430000 70.998 -120.6158
2.470000 71.041 -121.9831
2.500000 71.058 -122.9660
2.540000 71.079 -124.2809
2.580000 71.110 -125.6597
2.620000 71.101 -127.0486
2.650000 71.062 -128.0627
2.690000 70.972 -129.3451
2.720000 70.880 -130.2322
2.760000 70.729 -131.2826
2.800000 70.553 -132.1440
2.850000 70.307 -132.8923
2.900000 70.043 -133.2010
2.950000 69.765 -133.0030
3.000000 69.406 -132.3683
3.040000 69.068 -131.5760
3.070000 68.798 -130.8230
3.110000 68.432 -129.6160
3.150000 68.075 -128.1870
3.200000 67.673 -126.1050
3.250000 67.355 -123.7144
3.300000 67.157 -121.0338
3.350000 67.067 -117.7019
3.400000 67.053 -113.6536
3.450000 67.106 -109.1807
3.500000 67.217 -104.5749
3.550000 67.377 -100.1280
3.600000 67.578 -96.1317
3.650000 67.811 -92.8778
3.700000 68.091 -90.4712
3.750000 68.458 -88.5767
3.820000 69.068 -86.6409
3.870000 69.535 -85.6860
3.950000 70.261 -84.7285
4.000000 70.658 -84.3902
4.060000 71.045 -84.2150
4.120000 71.388 -84.5454
4.180000 71.695 -85.2960
4.250000 72.006 -86.5131
4.310000 72.232 -87.6861
4.370000 72.419 -88.8288
4.440000 72.584 -90.0627
4.500000 72.677 -91.2536
4.550000 72.723 -92.3086
4.620000 72.747 -93.7999
4.680000 72.736 -95.0167
4.750000 72.695 -96.2672
4.820000 72.618 -97.3438
4.870000 72.531 -98.0803
4.940000 72.377 -99.0201
5.000000 72.227 -99.6979
5.080000 72.017 -100.3458
5.150000 71.838 -100.6070
5.220000 71.637 -100.5736
5.300000 71.388 -100.2401
5.380000 71.148 -99.6658
5.450000 70.971 -99.0271
5.520000 70.843 -98.2907
5.600000 70.739 -97.1263
5.700000 70.661 -95.3956
5.800000 70.644 -93.7714
5.900000 70.695 -92.6353
6.000000 70.836 -91.7827
6.080000 70.990 -91.3063
6.150000 71.133 -91.0915
6.220000 71.265 -91.1084
6.300000 71.409 -91.4609
6.400000 71.600 -92.3394
6.500000 71.780 -93.5463
6.600000 71.923 -94.9138
6.700000 72.026 -96.5161
6.800000 72.098 -98.3538
6.900000 72.144 -100.2460
7.000000 72.163 -102.0433
7.100000 72.147 -103.8589
7.200000 72.108 -105.6425
7.300000 72.063 -107.2870
7.400000 72.015 -108.7298
7.500000 71.954 -110.0261
7.620000 71.888 -111.3978
7.750000 71.855 -112.6469
7.880000 71.852 -113.6020
8.000000 71.881 -114.3654
8.120000 71.953 -115.1368
8.250000 72.079 -115.9025
8.380000 72.235 -116.7040
8.500000 72.395 -117.5777
8.620000 72.580 -118.5456
8.750000 72.784 -119.6637
8.850000 72.932 -120.5664
9.000000 73.150 -122.0228
9.120000 73.314 -123.1770
9.250000 73.473 -124.3512
9.380000 73.616 -125.4845
9.500000 73.738 -126.4307
9.620000 73.853 -127.2415
9.750000 73.966 -127.9957
9.880000 74.079 -128.6302
10.000000 74.186 -129.0968
10.150000 74.320 -129.5381
10.300000 74.460 -129.9114
10.440000 74.598 -130.1868
10.600000 74.758 -130.4657
10.750000 74.907 -130.7424
10.900000 75.054 -131.0155
11.060000 75.199 -131.3142
11.200000 75.318 -131.5850
11.380000 75.456 -131.9131
11.500000 75.539 -132.1137
11.720000 75.674 -132.4441
11.800000 75.719 -132.5471
12.060000 75.852 -132.8370
12.200000 75.918 -132.9859
12.410000 76.008 -133.2067
12.500000 76.044 -133.3155
12.650000 76.099 -133.5121
12.800000 76.148 -133.7286
13.150000 76.232 -134.3198
13.200000 76.241 -134.4081
13.400000 76.268 -134.7704
13.600000 76.288 -135.1364
13.800000 76.302 -135.4969
14.000000 76.317 -135.8804
14.300000 76.343 -136.5215
14.500000 76.365 -137.0364
14.750000 76.391 -137.7906
15.000000 76.415 -138.6657
15.250000 76.429 -139.6183
15.500000 76.439 -140.5877
15.750000 76.447 -141.5404
16.000000 76.463 -142.4393
16.250000 76.493 -143.3032
16.500000 76.539 -144.1493
16.750000 76.602 -145.0109
17.000000 76.674 -145.9003
17.250000 76.752 -146.8064
17.500000 76.830 -147.7101
17.750000 76.905 -148.5660
18.000000 76.979 -149.3553
18.250000 77.051 -150.0583
18.500000 77.124 -150.6765
18.750000 77.199 -151.2226
19.000000 77.276 -151.7088
19.250000 77.353 -152.1561
19.500000 77.428 -152.5760
19.750000 77.500 -152.9783
20.000000 77.567 -153.3754
20.299999 77.636 -153.8520
20.600000 77.691 -154.3286
20.900000 77.730 -154.7949
21.200001 77.753 -155.2290
21.400000 77.762 -155.4895
21.799999 77.771 -155.9497
22.000000 77.776 -156.1651
22.400000 77.790 -156.6254
22.700001 77.804 -157.0459
23.000000 77.815 -157.5534
23.299999 77.821 -158.1263
23.600000 77.820 -158.7308
24.000000 77.816 -159.5393
24.299999 77.817 -160.1369
24.700001 77.830 -160.9445
25.000000 77.847 -161.5763
25.400000 77.874 -162.4485
25.799999 77.904 -163.3085
26.200001 77.937 -164.1104
26.500000 77.966 -164.6703
26.900000 78.012 -165.3804
27.200001 78.047 -165.8974
27.600000 78.090 -166.5609
28.000000 78.125 -167.1667
28.500000 78.160 -167.8141
29.000000 78.190 -168.3672
29.500000 78.216 -168.8820
30.000000 78.235 -169.3939
30.400000 78.244 -169.8135
30.700001 78.248 -170.1404
31.100000 78.249 -170.5963
31.500000 78.245 -171.0667
32.000000 78.235 -171.6507
32.500000 78.230 -172.2256
33.000000 78.234 -172.8250
33.500000 78.246 -173.4711
34.000000 78.259 -174.1385
34.500000 78.277 -174.7917
35.000000 78.301 -175.4347
35.500000 78.329 -176.0923
36.000000 78.350 -176.7555
36.500000 78.363 -177.3774
37.000000 78.370 -177.9217
37.500000 78.379 -178.4078
38.200001 78.395 -179.1081
38.700001 78.397 -179.6661
39.500000 78.368 179.4811
40.000000 78.345 179.0629
40.599998 78.334 178.6196
41.200001 78.341 178.0848
41.799999 78.344 177.4336
42.500000 78.336 176.6749
43.099998 78.331 176.0987
43.700001 78.337 175.5316
44.400002 78.349 174.8008
45.000000 78.348 174.1376
45.500000 78.336 173.6315
46.200001 78.320 173.0460
46.799999 78.319 172.5633
47.500000 78.315 171.8933
48.200001 78.288 171.2547
48.700001 78.268 170.9137
49.400002 78.266 170.4712
50.000000 78.275 169.9542
50.799999 78.262 169.1616
51.500000 78.237 168.5716
52.200001 78.218 168.0355
53.000000 78.196 167.3985
53.799999 78.169 166.7926
54.500000 78.148 166.2726
55.200001 78.125 165.7421
56.000000 78.099 165.1667
57.000000 78.074 164.4467
58.000000 78.045 163.7527
59.000000 78.025 163.0949
60.000000 77.997 162.3842
60.799999 77.965 161.8835
61.500000 77.940 161.4763
62.200001 77.916 161.0524
63.000000 77.885 160.5430
64.000000 77.839 159.9389
65.000000 77.808 159.3895
66.000000 77.783 158.7163
67.000000 77.746 158.1102
68.000000 77.726 157.4887
69.000000 77.676 156.8221
70.000000 77.629 156.4417
71.000000 77.614 155.9422
72.000000 77.574 155.3802
73.000000 77.548 154.9126
74.000000 77.520 154.2925
75.000000 77.474 153.7701
76.199997 77.441 153.2314
77.500000 77.406 152.5028
78.800003 77.347 151.8385
80.000000 77.309 151.3691
81.199997 77.287 150.7112
82.500000 77.224 150.0028
83.800003 77.172 149.5029
85.000000 77.139 149.0173
86.199997 77.102 148.4374
87.500000 77.047 147.8353
88.500000 77.005 147.4151
90.000000 76.953 146.8095
91.199997 76.908 146.2672
92.500000 76.853 145.7610
93.800003 76.805 145.2704
95.000000 76.762 144.8089
96.199997 76.722 144.3638
97.500000 76.678 143.8208
98.800003 76.632 143.4511
100.000000 76.612 142.9109
101.500000 76.534 142.3554
103.000000 76.466 141.8694
104.400002 76.428 141.4466
106.000000 76.352 140.8190
107.500000 76.308 140.3580
109.000000 76.254 139.8534
110.599998 76.204 139.3886
112.000000 76.153 138.9257
113.800003 76.081 138.3526
115.000000 76.030 138.0945
117.199997 75.955 137.4502
118.000000 75.932 137.2727
120.599998 75.846 136.5408
122.000000 75.803 136.1544
124.099998 75.730 135.6334
125.000000 75.705 135.4273
126.500000 75.653 135.0400
128.000000 75.617 134.6523
131.500000 75.500 133.7567
132.000000 75.484 133.6536
134.000000 75.442 133.1453
136.000000 75.385 132.6449
138.000000 75.342 132.1606
140.000000 75.274 131.6295
143.000000 75.175 130.9344
145.000000 75.142 130.4203
147.500000 75.058 129.8318
150.000000 74.980 129.2167
152.500000 74.893 128.7704
155.000000 74.845 128.1179
157.500000 74.761 127.6599
160.000000 74.688 127.1265
162.500000 74.608 126.6497
165.000000 74.546 126.1878
167.500000 74.472 125.7539
170.000000 74.408 125.2335
172.500000 74.336 124.8883
175.000000 74.278 124.3872
177.500000 74.212 124.0052
180.000000 74.145 123.6794
182.500000 74.073 123.1749
185.000000 74.018 122.7376
187.500000 73.957 122.2915
190.000000 73.895 121.9269
192.500000 73.832 121.6261
195.000000 73.769 121.2991
197.500000 73.712 120.9412
200.000000 73.661 120.6138
203.000000 73.585 120.2410
206.000000 73.527 119.8541
209.000000 73.446 119.4875
212.000000 73.385 119.1526
214.000000 73.345 118.9456
218.000000 73.250 118.4481
220.000000 73.222 118.3437
224.000000 73.134 118.0029
227.000000 73.059 117.7228
230.000000 73.027 117.5256
233.000000 72.989 117.4197
236.000000 72.936 117.3112
240.000000 72.911 116.9918
243.000000 72.908 116.7323
247.000000 72.865 116.3325
250.000000 72.840 115.8458
254.000000 72.824 115.3523
258.000000 72.759 114.8860
262.000000 72.720 114.4022
265.000000 72.685 114.0896
269.000000 72.619 113.6564
272.000000 72.575 113.3236
276.000000 72.533 112.9914
280.000000 72.470 112.6465
285.000000 72.391 112.1332
290.000000 72.360 111.7662
295.000000 72.298 111.5590
300.000000 72.250 111.1262
304.000000 72.206 110.7292
307.000000 72.185 110.5390
311.000000 72.140 110.2998
315.000000 72.102 110.0936
320.000000 72.069 109.8027
325.000000 72.021 109.5470
330.000000 72.011 109.1656
335.000000 71.955 109.0076
340.000000 71.940 108.6364
345.000000 71.884 108.3821
350.000000 71.881 108.1089
355.000000 71.830 107.9113
360.000000 71.810 107.7270
365.000000 71.795 107.3954
370.000000 71.780 107.2819
375.000000 71.774 107.0631
382.000000 71.750 106.8459
387.000000 71.738 106.5336
395.000000 71.730 106.2190
400.000000 71.727 105.8131
406.000000 71.722 105.8688
412.000000 71.724 105.4608
418.000000 71.708 105.4824
425.000000 71.721 104.9814
431.000000 71.733 104.9603
437.000000 71.720 104.7244
444.000000 71.736 104.6127
450.000000 71.769 104.3191
455.000000 71.761 104.1545
462.000000 71.767 103.7836
468.000000 71.796 103.7576
475.000000 71.830 103.4782
482.000000 71.847 103.3188
487.000000 71.850 103.2876
494.000000 71.878 103.0856
500.000000 71.933 102.7756
508.000000 71.959 102.6456
515.000000 71.986 102.5545
522.000000 72.049 102.1476
530.000000 72.055 102.0185
538.000000 72.117 101.7097
545.000000 72.171 101.4752
552.000000 72.201 101.3224
560.000000 72.252 101.0596
570.000000 72.322 100.7401
580.000000 72.388 100.3795
590.000000 72.457 100.1375
600.000000 72.541 99.8770
608.000000 72.589 99.5003
615.000000 72.657 99.4503
622.000000 72.702 99.1412
630.000000 72.768 98.7962
640.000000 72.847 98.5565
650.000000 72.948 98.1018
660.000000 73.014 97.8479
670.000000 73.111 97.5081
680.000000 73.188 97.1319
690.000000 73.261 96.7341
700.000000 73.351 96.2437
710.000000 73.436 96.1049
720.000000 73.525 95.5970
730.000000 73.612 95.3568
740.000000 73.709 94.8868
750.000000 73.783 94.3818
762.000000 73.884 94.0177
775.000000 74.017 93.3714
788.000000 74.125 92.8542
800.000000 74.192 92.3649
812.000000 74.326 91.7385
825.000000 74.433 91.1916
838.000000 74.525 90.7199
850.000000 74.628 90.0455
862.000000 74.706 89.5406
875.000000 74.816 88.9259
885.000000 74.890 88.4645
900.000000 75.023 87.8256
912.000000 75.081 87.2362
925.000000 75.192 86.5735
938.000000 75.291 85.9087
950.000000 75.383 85.3351
962.000000 75.467 84.6902
975.000000 75.541 84.0178
988.000000 75.631 83.2900
1000.000000 75.688 82.4136
1015.000000 75.796 81.9573
1030.000000 75.898 81.0989
1044.000000 75.968 80.2612
1060.000000 76.068 79.3711
1075.000000 76.145 78.4210
1090.000000 76.201 77.5002
1106.000000 76.281 76.4611
1120.000000 76.327 75.5746
1138.000000 76.382 74.3233
1150.000000 76.381 73.5138
1172.000000 76.400 72.0883
1180.000000 76.407 71.4133
1206.000000 76.345 70.0880
1220.000000 76.308 69.4524
1241.000000 76.269 68.5228
1250.000000 76.262 68.2179
1265.000000 76.234 67.7436
1280.000000 76.206 67.1441
1315.000000 76.174 66.1528
1320.000000 76.153 65.9626
1340.000000 76.141 65.4419
1360.000000 76.101 64.8928
1380.000000 76.073 64.4615
1400.000000 76.036 63.9075
1430.000000 75.986 63.4056
1450.000000 75.938 63.0519
1475.000000 75.908 62.7158
1500.000000 75.893 62.4500
1525.000000 75.893 61.9979
1550.000000 75.851 61.7335
1575.000000 75.837 61.3817
1600.000000 75.788 61.3070
1625.000000 75.766 60.7973
1650.000000 75.730 60.6592
1675.000000 75.709 60.4975
1700.000000 75.674 60.3712
1725.000000 75.645 60.1750
1750.000000 75.646 60.2265
1775.000000 75.617 60.2071
1800.000000 75.619 60.1825
1825.000000 75.613 60.2019
1850.000000 75.640 60.1425
1875.000000 75.671 60.0371
1900.000000 75.644 60.0989
1925.000000 75.661 59.7803
1950.000000 75.648 59.6730
1975.000000 75.629 59.6205
2000.000000 75.693 59.9324
2030.000000 75.686 59.4366
2060.000000 75.697 59.3463
2090.000000 75.697 59.1287
2120.000000 75.723 59.0968
2140.000000 75.709 58.8322
2180.000000 75.726 58.7232
2200.000000 75.730 58.5368
2240.000000 75.740 58.4960
2270.000000 75.761 58.1783
2300.000000 75.754 58.1608
2330.000000 75.770 57.8965
2360.000000 75.792 57.7933
2400.000000 75.819 57.8314
2430.000000 75.877 57.7408
2470.000000 75.969 57.4445
2500.000000 76.075 57.1518
2540.000000 76.201 56.1817
2580.000000 76.278 54.6559
2620.000000 76.285 53.5134
2650.000000 76.281 52.3530
2690.000000 76.243 50.9895
2720.000000 76.211 50.0537
2760.000000 76.095 48.4609
2800.000000 76.004 47.3288
2850.000000 75.852 45.7391
2900.000000 75.653 43.9967
2950.000000 75.410 42.6703
3000.000000 75.131 42.0023
3040.000000 74.913 40.6310
3070.000000 74.750 40.2423
3110.000000 74.516 39.6985
3150.000000 74.255 39.4014
3200.000000 73.919 38.9189
3250.000000 73.616 38.9474
3300.000000 73.357 38.9597
3350.000000 73.086 39.2437
3400.000000 72.791 39.3488
3450.000000 72.465 39.6387
3500.000000 72.174 40.3405
3550.000000 71.948 41.6409
3600.000000 71.735 43.0812
3650.000000 71.594 44.5272
3700.000000 71.482 45.7173
3750.000000 71.412 46.6355
3820.000000 71.484 48.1112
3870.000000 71.483 48.9918
3950.000000 71.612 49.7988
4000.000000 71.624 51.2574
4060.000000 71.803 50.0175
4120.000000 72.025 50.0108
4180.000000 72.246 49.5717
4250.000000 72.576 48.0071
4310.000000 72.813 45.9966
4370.000000 73.066 43.9727
4440.000000 73.360 40.4723
4500.000000 73.583 36.8623
4550.000000 73.696 33.5826
4620.000000 73.881 28.7927
4680.000000 73.905 24.4928
4750.000000 73.969 19.0663
4820.000000 73.888 12.9146
4870.000000 73.829 9.1173
4940.000000 73.712 3.7394
5000.000000 73.563 -0.8934
5080.000000 73.480 -6.1852
5150.000000 73.437 -10.9380
5220.000000 73.411 -15.0887
5300.000000 73.507 -20.0387
5380.000000 73.647 -24.7592
5450.000000 73.882 -28.8623
5520.000000 74.098 -33.2954
5600.000000 74.448 -38.2322
5700.000000 75.050 -44.8692
5800.000000 75.455 -52.4683
5900.000000 75.829 -60.1478
6000.000000 76.047 -68.4336
6080.000000 76.044 -73.9895
6150.000000 75.875 -77.8042
6220.000000 75.962 -81.2640
6300.000000 75.928 -86.3806
6400.000000 75.627 -91.4913
6500.000000 75.215 -95.0656
6600.000000 74.860 -96.7205
6700.000000 74.623 -97.6559
6800.000000 74.382 -97.4829
6900.000000 74.259 -97.2219
7000.000000 74.226 -96.4984
7100.000000 74.369 -95.6658
7200.000000 74.513 -94.5110
7300.000000 74.787 -93.7043
7400.000000 75.116 -93.4978
7500.000000 75.534 -93.3101
7620.000000 76.093 -94.1624
7750.000000 76.670 -97.1666
7880.000000 77.130 -101.8785
8000.000000 77.248 -107.3843
8120.000000 77.150 -113.6875
8250.000000 76.535 -119.8378
8380.000000 75.547 -124.5126
8500.000000 74.620 -126.8141
8620.000000 73.503 -127.1436
8750.000000 72.445 -125.9954
8850.000000 71.554 -124.2728
9000.000000 70.513 -120.5984
9120.000000 69.705 -116.6676
9250.000000 68.941 -112.1694
9380.000000 67.986 -108.1010
9500.000000 67.356 -102.5394
9620.000000 66.643 -98.4066
9750.000000 65.632 -92.7578
9880.000000 64.432 -85.4976
10000.000000 63.172 -76.1639
10150.000000 60.769 -51.2061
10300.000000 62.609 -15.4987
10440.000000 66.323 -3.2930
10600.000000 69.209 -3.0706
10750.000000 70.660 -5.4213
10900.000000 71.526 -6.5311
11060.000000 72.417 -6.7258
11200.000000 72.889 -6.7960
11380.000000 73.299 -6.4919
11500.000000 73.527 -5.4347
11720.000000 74.070 -2.0109
11800.000000 74.377 -0.8230
12060.000000 75.422 -0.6183
12200.000000 75.788 -1.3138
12410.000000 75.989 -3.9190
12500.000000 76.046 -4.4622
12650.000000 75.957 -5.2200
12800.000000 75.784 -5.1418
13150.000000 75.515 -2.1312
13200.000000 75.508 -1.2476
13400.000000 75.523 1.2355
13600.000000 75.782 2.8069
13800.000000 76.097 3.6443
14000.000000 76.394 2.8325
14300.000000 76.479 -1.5622
14500.000000 76.096 -5.9039
14750.000000 75.074 -9.0148
15000.000000 73.720 -9.3344
15250.000000 72.447 -5.1892
15500.000000 71.287 0.7421
15750.000000 70.341 9.0621
16000.000000 69.326 20.0224
16250.000000 70.135 37.7251
16500.000000 71.380 41.6892
16750.000000 71.890 46.9635
17000.000000 72.624 51.5724
17250.000000 73.853 55.6549
17500.000000 75.482 54.7910
17750.000000 77.153 46.1850
18000.000000 77.717 30.0564
18250.000000 76.673 14.0083
18500.000000 74.930 3.3389
18750.000000 72.863 -4.5970
19000.000000 70.365 -11.1021
19250.000000 67.456 -12.8799
19500.000000 64.584 -9.8594
19750.000000 61.972 -6.7902
20000.000000 59.026 1.4624
20300.000000 55.255 13.8919
20600.000000 52.434 28.7775
20900.000000 51.897 41.0257
21200.000000 47.401 80.8794
21400.000000 37.609 104.0770
21800.000000 41.787 113.7993
22000.000000 38.968 54.4719
22400.000000 14.441 -6.9978
22700.000000 13.949 148.9180
23000.000000 17.839 -57.8027
23300.000000 15.009 157.3652
23600.000000 24.382 109.2812

