* Measurement data measured by REW V5.20.13
* Source: Microphone (USB Sound Device        ), MICROPHONE (Master Volume), R, volume: 0,250
* Format: 256k Log Swept Sine, 1 sweep at -12,0 dBFS with no timing reference
* Dated: 21:13:49 18-05-2024
* REW Settings:
*  C-weighting compensation: Off
*  Target level: 75.0 dB
* Note: ; 
* Measurement: Meteor L
* Smoothing: None
* Frequency Step: 1/48 octave
* Start Frequency: 1.000 Hz
*
* Freq(Hz) SPL(dB) Phase(degrees)
1.000000 84.405 121.1321
1.015000 84.223 120.1937
1.030000 84.033 119.2450
1.044000 83.849 118.3498
1.060000 83.631 117.3140
1.075000 83.417 116.3299
1.090000 83.194 115.3324
1.106000 82.947 114.2753
1.120000 82.723 113.4779
1.138000 82.425 112.6355
1.150000 82.221 112.1704
1.172000 81.835 111.4744
1.180000 81.691 111.2602
1.206000 81.210 110.6518
1.220000 80.943 110.3496
1.241000 80.531 109.8791
1.250000 80.352 109.6577
1.265000 80.047 109.2444
1.280000 79.737 108.7557
1.315000 78.992 107.1947
1.320000 78.883 106.9112
1.340000 78.442 105.5924
1.360000 77.992 103.9372
1.380000 77.535 101.8917
1.400000 77.069 99.4018
1.430000 76.357 94.7158
1.450000 75.873 90.8788
1.475000 75.251 85.1519
1.500000 74.534 78.0922
1.525000 73.724 69.8074
1.550000 72.845 60.4954
1.575000 71.918 50.3540
1.600000 70.967 39.5811
1.625000 70.015 28.3746
1.650000 69.084 16.9321
1.675000 68.197 5.4516
1.700000 67.376 -5.8691
1.725000 66.646 -16.8322
1.750000 66.027 -27.2397
1.775000 65.544 -36.8940
1.800000 65.219 -45.5972
1.825000 65.075 -53.1514
1.850000 65.138 -59.5750
1.875000 65.414 -65.3164
1.900000 65.875 -70.4518
1.925000 66.493 -75.0380
1.950000 67.241 -79.1317
1.975000 68.090 -82.7895
2.000000 69.013 -86.0682
2.030000 70.177 -89.5820
2.060000 71.357 -92.7297
2.090000 72.506 -95.6091
2.120000 73.575 -98.3182
2.140000 74.219 -100.0782
2.180000 75.277 -103.6178
2.200000 75.664 -105.4534
2.240000 76.267 -108.8217
2.270000 76.625 -110.9705
2.300000 76.911 -112.8380
2.330000 77.135 -114.4623
2.360000 77.306 -115.8815
2.400000 77.466 -117.5208
2.430000 77.548 -118.6098
2.470000 77.623 -119.9469
2.500000 77.665 -120.9131
2.540000 77.720 -122.2248
2.580000 77.785 -123.6278
2.620000 77.812 -125.0141
2.650000 77.802 -126.0077
2.690000 77.752 -127.2513
2.720000 77.693 -128.1094
2.760000 77.588 -129.1341
2.800000 77.462 -129.9994
2.850000 77.282 -130.8192
2.900000 77.093 -131.3024
2.950000 76.898 -131.4064
3.000000 76.646 -131.1588
3.040000 76.408 -130.7293
3.070000 76.218 -130.2802
3.110000 75.957 -129.5217
3.150000 75.702 -128.5919
3.200000 75.410 -127.2074
3.250000 75.172 -125.5977
3.300000 75.014 -123.7849
3.350000 74.922 -121.5188
3.400000 74.874 -118.7468
3.450000 74.867 -115.6664
3.500000 74.899 -112.4751
3.550000 74.969 -109.3703
3.600000 75.075 -106.5495
3.650000 75.215 -104.2099
3.700000 75.401 -102.4020
3.750000 75.657 -100.8667
3.820000 76.095 -99.1362
3.870000 76.436 -98.1875
3.950000 76.975 -97.1430
4.000000 77.273 -96.7724
4.060000 77.570 -96.6333
4.120000 77.844 -96.9545
4.180000 78.100 -97.6541
4.250000 78.367 -98.7978
4.310000 78.562 -99.9298
4.370000 78.720 -101.0827
4.440000 78.851 -102.4115
4.500000 78.923 -103.7194
4.550000 78.955 -104.8961
4.620000 78.964 -106.5986
4.680000 78.941 -108.0373
4.750000 78.883 -109.5988
4.820000 78.786 -111.0487
4.870000 78.687 -112.0901
4.940000 78.515 -113.5030
5.000000 78.347 -114.6225
5.080000 78.103 -115.9003
5.150000 77.882 -116.7458
5.220000 77.628 -117.3759
5.300000 77.309 -117.8662
5.380000 76.988 -118.1176
5.450000 76.729 -118.1469
5.520000 76.508 -117.9860
5.600000 76.275 -117.4238
5.700000 76.015 -116.3628
5.800000 75.819 -115.2747
5.900000 75.717 -114.4891
6.000000 75.718 -113.7489
6.080000 75.768 -113.2664
6.150000 75.832 -113.0382
6.220000 75.898 -113.0849
6.300000 75.987 -113.5154
6.400000 76.134 -114.4929
6.500000 76.287 -115.8485
6.600000 76.408 -117.4657
6.700000 76.499 -119.4376
6.800000 76.570 -121.7346
6.900000 76.616 -124.1464
7.000000 76.629 -126.5036
7.100000 76.606 -128.9567
7.200000 76.558 -131.4162
7.300000 76.496 -133.7168
7.400000 76.422 -135.7801
7.500000 76.325 -137.7012
7.620000 76.209 -139.7439
7.750000 76.114 -141.5187
7.880000 76.036 -142.8208
8.000000 75.999 -143.7490
8.120000 76.019 -144.5131
8.250000 76.099 -145.0528
8.380000 76.226 -145.5240
8.500000 76.380 -146.0792
8.620000 76.578 -146.6670
8.750000 76.808 -147.3889
8.850000 76.977 -148.0511
9.000000 77.239 -149.2106
9.120000 77.436 -150.1798
9.250000 77.620 -151.2173
9.380000 77.782 -152.2784
9.500000 77.912 -153.1749
9.620000 78.022 -153.9385
9.750000 78.118 -154.6573
9.880000 78.205 -155.2315
10.000000 78.279 -155.6031
10.150000 78.363 -155.8894
10.300000 78.450 -156.0228
10.440000 78.537 -156.0516
10.600000 78.637 -156.0811
10.750000 78.734 -156.0797
10.900000 78.831 -156.0720
11.060000 78.924 -156.1046
11.200000 78.996 -156.1692
11.380000 79.072 -156.2603
11.500000 79.110 -156.3238
11.720000 79.159 -156.4254
11.800000 79.171 -156.4457
12.060000 79.192 -156.4768
12.200000 79.198 -156.4867
12.410000 79.201 -156.5075
12.500000 79.200 -156.5427
12.650000 79.196 -156.6286
12.800000 79.186 -156.7588
13.150000 79.134 -157.2695
13.200000 79.124 -157.3559
13.400000 79.069 -157.7402
13.600000 79.006 -158.1412
13.800000 78.936 -158.5382
14.000000 78.872 -158.9482
14.300000 78.792 -159.6141
14.500000 78.758 -160.1572
14.750000 78.729 -161.0006
15.000000 78.713 -162.0414
15.250000 78.697 -163.2475
15.500000 78.679 -164.5195
15.750000 78.661 -165.7952
16.000000 78.651 -166.9844
16.250000 78.659 -168.0793
16.500000 78.688 -169.0911
16.750000 78.743 -170.0571
17.000000 78.813 -171.0086
17.250000 78.892 -171.9379
17.500000 78.971 -172.8287
17.750000 79.045 -173.6243
18.000000 79.117 -174.3062
18.250000 79.186 -174.8545
18.500000 79.257 -175.2943
18.750000 79.329 -175.6567
19.000000 79.400 -175.9710
19.250000 79.464 -176.2652
19.500000 79.518 -176.5349
19.750000 79.560 -176.7780
20.000000 79.589 -176.9828
20.299999 79.612 -177.1905
20.600000 79.625 -177.3818
20.900000 79.629 -177.5929
21.200001 79.621 -177.8538
21.400000 79.609 -178.0565
21.799999 79.570 -178.5175
22.000000 79.546 -178.7725
22.400000 79.495 -179.3403
22.700001 79.459 -179.8454
23.000000 79.426 179.5568
23.299999 79.392 178.8763
23.600000 79.357 178.1472
24.000000 79.314 177.1636
24.299999 79.293 176.4484
24.700001 79.288 175.5131
25.000000 79.301 174.7964
25.400000 79.334 173.8032
25.799999 79.372 172.8114
26.200001 79.408 171.9053
26.500000 79.435 171.3163
26.900000 79.475 170.6509
27.200001 79.507 170.2194
27.600000 79.551 169.7008
28.000000 79.590 169.2243
28.500000 79.624 168.6687
29.000000 79.638 168.1351
29.500000 79.630 167.6147
30.000000 79.604 167.1139
30.400000 79.578 166.7110
30.700001 79.559 166.3847
31.100000 79.533 165.8889
31.500000 79.506 165.3211
32.000000 79.468 164.5493
32.500000 79.435 163.7534
33.000000 79.414 162.9340
33.500000 79.405 162.0808
34.000000 79.402 161.2225
34.500000 79.405 160.4009
35.000000 79.412 159.6295
35.500000 79.421 158.9130
36.000000 79.428 158.2632
36.500000 79.435 157.6716
37.000000 79.438 157.1012
37.500000 79.433 156.5389
38.200001 79.412 155.8073
38.700001 79.397 155.3036
39.500000 79.371 154.3646
40.000000 79.343 153.7184
40.599998 79.303 152.9879
41.200001 79.275 152.2900
41.799999 79.258 151.5421
42.500000 79.239 150.6287
43.099998 79.223 149.8691
43.700001 79.209 149.1176
44.400002 79.186 148.2713
45.000000 79.165 147.6104
45.500000 79.150 147.0740
46.200001 79.127 146.2961
46.799999 79.101 145.6481
47.500000 79.077 144.9284
48.200001 79.060 144.1004
48.700001 79.034 143.4441
49.400002 78.973 142.6660
50.000000 78.933 142.2186
50.799999 78.925 141.5658
51.500000 78.909 140.7484
52.200001 78.859 139.9963
53.000000 78.806 139.3218
53.799999 78.761 138.5847
54.500000 78.710 137.9740
55.200001 78.672 137.4436
56.000000 78.645 136.7763
57.000000 78.620 135.9583
58.000000 78.629 135.0591
59.000000 78.616 133.9594
60.000000 78.581 133.0432
60.799999 78.565 132.3134
61.500000 78.539 131.5818
62.200001 78.497 130.8829
63.000000 78.451 130.1682
64.000000 78.406 129.1699
65.000000 78.339 128.1190
66.000000 78.268 127.2631
67.000000 78.219 126.4560
68.000000 78.156 125.6363
69.000000 78.100 125.0153
70.000000 78.060 124.2428
71.000000 77.988 123.4618
72.000000 77.925 122.7859
73.000000 77.867 122.1734
74.000000 77.855 121.6149
75.000000 77.854 120.6670
76.199997 77.794 119.5900
77.500000 77.765 118.6086
78.800003 77.716 117.3403
80.000000 77.660 116.2957
81.199997 77.584 115.2764
82.500000 77.551 114.2038
83.800003 77.410 113.0299
85.000000 77.377 112.5596
86.199997 77.295 111.4404
87.500000 77.242 110.8329
88.500000 77.187 109.8997
90.000000 77.099 109.0761
91.199997 77.028 108.1847
92.500000 76.963 107.4321
93.800003 76.889 106.5173
95.000000 76.843 105.6739
96.199997 76.753 104.8325
97.500000 76.740 104.1340
98.800003 76.659 102.9558
100.000000 76.586 102.3912
101.500000 76.507 101.4860
103.000000 76.425 100.5396
104.400002 76.333 99.6870
106.000000 76.244 98.7425
107.500000 76.165 97.8977
109.000000 76.089 96.9424
110.599998 75.975 96.0973
112.000000 75.905 95.3524
113.800003 75.788 94.4409
115.000000 75.742 93.8868
117.199997 75.623 92.7036
118.000000 75.580 92.2935
120.599998 75.445 90.9705
122.000000 75.355 90.3809
124.099998 75.241 89.4231
125.000000 75.202 89.0932
126.500000 75.124 88.3925
128.000000 75.052 87.7247
131.500000 74.870 86.3033
132.000000 74.844 86.1253
134.000000 74.751 85.3105
136.000000 74.650 84.4041
138.000000 74.557 83.7022
140.000000 74.451 82.8803
143.000000 74.313 81.6797
145.000000 74.211 81.0985
147.500000 74.107 80.2427
150.000000 73.994 79.3871
152.500000 73.856 78.5127
155.000000 73.738 77.7714
157.500000 73.650 76.9280
160.000000 73.534 76.2729
162.500000 73.426 75.6695
165.000000 73.333 74.9667
167.500000 73.222 74.3906
170.000000 73.118 73.7047
172.500000 73.048 73.1544
175.000000 72.957 72.5947
177.500000 72.863 71.9458
180.000000 72.781 71.3299
182.500000 72.692 70.7618
185.000000 72.584 70.2304
187.500000 72.498 69.6807
190.000000 72.388 69.3555
192.500000 72.312 68.9501
195.000000 72.250 68.8096
197.500000 72.189 68.4567
200.000000 72.142 68.0715
203.000000 72.075 67.3972
206.000000 72.017 66.7609
209.000000 71.946 66.1628
212.000000 71.871 65.6726
214.000000 71.814 65.1838
218.000000 71.712 64.7639
220.000000 71.676 64.3318
224.000000 71.585 63.7886
227.000000 71.511 63.4811
230.000000 71.427 63.1212
233.000000 71.359 62.5898
236.000000 71.325 62.2697
240.000000 71.242 61.8523
243.000000 71.169 61.5869
247.000000 71.113 61.0273
250.000000 71.045 60.7866
254.000000 71.002 60.3104
258.000000 70.925 59.9508
262.000000 70.863 59.7573
265.000000 70.828 59.4470
269.000000 70.741 59.2461
272.000000 70.728 58.8782
276.000000 70.688 58.6356
280.000000 70.629 58.3698
285.000000 70.572 57.9685
290.000000 70.544 57.5574
295.000000 70.486 57.2584
300.000000 70.427 57.0567
304.000000 70.401 56.7458
307.000000 70.393 56.5092
311.000000 70.361 56.3058
315.000000 70.334 56.1342
320.000000 70.297 55.7055
325.000000 70.283 55.5463
330.000000 70.244 54.9588
335.000000 70.232 55.0014
340.000000 70.189 54.8425
345.000000 70.174 54.6416
350.000000 70.149 54.2576
355.000000 70.137 53.9837
360.000000 70.131 53.8975
365.000000 70.106 53.6606
370.000000 70.102 53.2677
375.000000 70.103 53.1497
382.000000 70.069 52.7784
387.000000 70.069 52.6504
395.000000 70.038 52.3047
400.000000 70.028 52.1599
406.000000 70.013 51.9747
412.000000 70.045 51.5963
418.000000 70.011 51.3999
425.000000 70.004 51.2621
431.000000 69.989 51.1109
437.000000 70.011 50.8129
444.000000 69.985 50.5905
450.000000 69.987 49.9849
455.000000 69.997 50.1477
462.000000 69.993 49.8226
468.000000 70.008 49.7512
475.000000 69.958 49.3737
482.000000 69.975 49.2453
487.000000 69.958 48.9921
494.000000 69.954 48.9827
500.000000 69.931 48.6568
508.000000 69.900 48.5562
515.000000 69.909 48.2457
522.000000 69.885 48.1666
530.000000 69.875 48.0686
538.000000 69.867 47.9418
545.000000 69.868 47.7907
552.000000 69.865 47.6356
560.000000 69.851 47.4080
570.000000 69.808 47.3557
580.000000 69.797 47.2239
590.000000 69.773 47.2635
600.000000 69.735 47.2015
608.000000 69.756 47.1384
615.000000 69.745 47.0270
622.000000 69.684 47.0726
630.000000 69.714 47.0702
640.000000 69.683 47.0049
650.000000 69.672 47.0976
660.000000 69.629 47.1747
670.000000 69.606 47.0509
680.000000 69.605 47.1450
690.000000 69.562 47.5455
700.000000 69.580 47.6782
710.000000 69.533 47.9899
720.000000 69.541 48.1139
730.000000 69.549 48.2171
740.000000 69.481 48.2831
750.000000 69.499 48.4791
762.000000 69.493 48.9429
775.000000 69.498 49.2461
788.000000 69.467 49.6211
800.000000 69.498 49.8640
812.000000 69.469 50.4294
825.000000 69.486 50.7005
838.000000 69.509 50.9197
850.000000 69.493 51.5009
862.000000 69.525 52.0263
875.000000 69.549 52.4289
885.000000 69.544 52.7971
900.000000 69.576 53.2427
912.000000 69.570 53.6475
925.000000 69.678 54.1978
938.000000 69.709 54.6646
950.000000 69.763 55.0223
962.000000 69.802 55.2494
975.000000 69.824 55.7792
988.000000 69.897 56.1724
1000.000000 70.016 56.9530
1015.000000 70.001 57.0421
1030.000000 70.068 57.2959
1044.000000 70.149 57.8012
1060.000000 70.233 58.3040
1075.000000 70.298 58.2439
1090.000000 70.363 58.7517
1106.000000 70.432 58.8330
1120.000000 70.489 59.3141
1138.000000 70.608 59.3377
1150.000000 70.633 59.4912
1172.000000 70.751 59.9546
1180.000000 70.786 59.7352
1206.000000 70.881 60.2403
1220.000000 70.900 60.2018
1241.000000 71.026 60.2827
1250.000000 71.023 60.5773
1265.000000 71.086 60.6149
1280.000000 71.153 60.9135
1315.000000 71.285 61.1783
1320.000000 71.260 61.0864
1340.000000 71.337 61.1412
1360.000000 71.370 61.3214
1380.000000 71.453 61.4170
1400.000000 71.514 61.7554
1430.000000 71.583 61.9802
1450.000000 71.634 62.2552
1475.000000 71.738 62.3149
1500.000000 71.793 62.8375
1525.000000 71.886 62.9590
1550.000000 72.000 63.1158
1575.000000 72.022 63.0504
1600.000000 72.078 63.5863
1625.000000 72.148 63.8391
1650.000000 72.240 64.0835
1675.000000 72.328 64.2711
1700.000000 72.419 64.4225
1725.000000 72.483 64.7159
1750.000000 72.575 64.7719
1775.000000 72.664 65.1035
1800.000000 72.769 65.0581
1825.000000 72.882 65.3640
1850.000000 73.002 65.2798
1875.000000 73.099 65.0124
1900.000000 73.197 64.8977
1925.000000 73.304 64.8638
1950.000000 73.403 64.8098
1975.000000 73.484 64.5665
2000.000000 73.657 63.7668
2030.000000 73.717 63.8698
2060.000000 73.796 63.3573
2090.000000 73.915 62.5341
2120.000000 73.993 61.8051
2140.000000 74.054 61.2726
2180.000000 74.116 60.4253
2200.000000 74.134 59.7215
2240.000000 74.156 58.6661
2270.000000 74.168 57.6858
2300.000000 74.135 56.8063
2330.000000 74.091 56.2054
2360.000000 74.008 55.7960
2400.000000 73.984 55.9142
2430.000000 74.071 55.6648
2470.000000 74.205 54.7019
2500.000000 74.284 53.4694
2540.000000 74.289 51.4147
2580.000000 74.171 49.3779
2620.000000 74.001 47.7172
2650.000000 73.883 46.6183
2690.000000 73.659 45.5393
2720.000000 73.532 45.0173
2760.000000 73.319 44.1454
2800.000000 73.147 43.5027
2850.000000 72.859 42.7913
2900.000000 72.629 42.4557
2950.000000 72.434 41.8708
3000.000000 72.150 42.0195
3040.000000 72.051 40.8090
3070.000000 71.892 40.8372
3110.000000 71.710 40.5564
3150.000000 71.562 40.3060
3200.000000 71.297 40.0619
3250.000000 71.067 40.2252
3300.000000 70.852 40.3199
3350.000000 70.705 41.0940
3400.000000 70.630 40.9415
3450.000000 70.531 41.3769
3500.000000 70.560 41.6349
3550.000000 70.600 41.2339
3600.000000 70.640 40.5493
3650.000000 70.759 39.4291
3700.000000 70.881 37.8894
3750.000000 70.926 35.7180
3820.000000 71.134 31.8860
3870.000000 71.182 28.6429
3950.000000 71.228 21.9966
4000.000000 71.270 16.5637
4060.000000 71.114 10.8298
4120.000000 70.891 3.7988
4180.000000 70.522 -3.4149
4250.000000 69.856 -10.8053
4310.000000 69.174 -17.5667
4370.000000 68.552 -23.0970
4440.000000 67.805 -28.8170
4500.000000 67.187 -33.1056
4550.000000 66.692 -36.6061
4620.000000 66.244 -40.6548
4680.000000 65.850 -44.8194
4750.000000 65.693 -47.7849
4820.000000 65.609 -51.2159
4870.000000 65.600 -52.7373
4940.000000 65.651 -55.7169
5000.000000 65.748 -59.1320
5080.000000 66.276 -60.5507
5150.000000 66.793 -63.0444
5220.000000 67.371 -65.4082
5300.000000 68.096 -68.5057
5380.000000 68.957 -72.3337
5450.000000 69.737 -75.5273
5520.000000 70.545 -80.6356
5600.000000 71.244 -87.0294
5700.000000 71.823 -96.3243
5800.000000 71.873 -105.3716
5900.000000 71.583 -112.5370
6000.000000 71.171 -117.2794
6080.000000 70.646 -119.9915
6150.000000 70.201 -121.2006
6220.000000 69.801 -121.3188
6300.000000 69.393 -120.6612
6400.000000 68.987 -118.4347
6500.000000 68.642 -116.5743
6600.000000 68.414 -113.3928
6700.000000 68.274 -110.2006
6800.000000 68.268 -106.7360
6900.000000 68.343 -103.3047
7000.000000 68.626 -99.1698
7100.000000 68.852 -95.7959
7200.000000 69.223 -92.0958
7300.000000 69.579 -88.9272
7400.000000 70.089 -86.4553
7500.000000 70.747 -84.5014
7620.000000 71.629 -83.6528
7750.000000 72.488 -85.6028
7880.000000 73.174 -89.4020
8000.000000 73.291 -94.3378
8120.000000 73.093 -99.9882
8250.000000 72.447 -103.3517
8380.000000 71.545 -105.1403
8500.000000 70.737 -104.3876
8620.000000 70.053 -102.3363
8750.000000 69.364 -97.9204
8850.000000 68.902 -94.9023
9000.000000 68.319 -89.1853
9120.000000 68.153 -84.2430
9250.000000 67.959 -78.7839
9380.000000 67.940 -73.6471
9500.000000 67.846 -68.4716
9620.000000 68.105 -64.3205
9750.000000 68.259 -59.5929
9880.000000 68.489 -55.4611
10000.000000 68.739 -53.0320
10150.000000 69.063 -49.9952
10300.000000 69.266 -48.4719
10440.000000 69.427 -46.7005
10600.000000 69.185 -45.8844
10750.000000 68.992 -45.0643
10900.000000 68.515 -42.4257
11060.000000 68.046 -37.9507
11200.000000 67.687 -33.9885
11380.000000 66.873 -24.2634
11500.000000 66.797 -17.9307
11720.000000 67.238 -4.8453
11800.000000 67.445 -0.9231
12060.000000 68.523 10.3423
12200.000000 69.084 15.3619
12410.000000 70.177 21.3934
12500.000000 70.601 23.8082
12650.000000 71.548 27.9050
12800.000000 72.546 31.0504
13150.000000 76.089 31.2924
13200.000000 76.719 29.1846
13400.000000 78.939 13.5409
13600.000000 78.672 -12.9597
13800.000000 75.963 -28.4952
14000.000000 73.029 -31.7522
14300.000000 69.802 -24.6074
14500.000000 68.267 -17.6470
14750.000000 66.650 -7.5012
15000.000000 65.712 3.5331
15250.000000 65.051 16.3425
15500.000000 65.054 26.5410
15750.000000 64.962 37.9136
16000.000000 65.733 47.4660
16250.000000 66.419 56.8929
16500.000000 67.472 64.8202
16750.000000 68.974 68.9348
17000.000000 70.725 67.8199
17250.000000 71.947 62.0594
17500.000000 72.793 52.1942
17750.000000 73.045 40.4583
18000.000000 72.733 24.8693
18250.000000 70.944 6.5077
18500.000000 67.554 -4.2537
18750.000000 63.760 -6.9431
19000.000000 60.813 1.0499
19250.000000 58.041 9.8138
19500.000000 56.182 15.9448
19750.000000 54.326 24.8946
20000.000000 52.219 31.7267
20300.000000 49.520 43.1779
20600.000000 47.582 55.3022
20900.000000 44.019 60.2712
21200.000000 38.791 58.1424
21400.000000 37.901 66.9966
21800.000000 27.058 43.2410
22000.000000 23.165 138.9258
22400.000000 23.274 110.1660
22700.000000 13.461 -178.4805
23000.000000 13.544 29.9727
23300.000000 13.624 87.2266
23600.000000 26.503 30.5781

