* Measurement data measured by REW V5.20.13
* Source: Microphone (USB Sound Device        ), MICROPHONE (Master Volume), R, volume: 0,250
* Format: 256k Log Swept Sine, 1 sweep at -12,0 dBFS with no timing reference
* Dated: 18:13:14 21-07-2024
* REW Settings:
*  C-weighting compensation: Off
*  Target level: 75.0 dB
* Note: ; 
* Measurement: MiM DM v1 set 2 hana L
* Smoothing: None
* Frequency Step: 1/48 octave
* Start Frequency: 1.000 Hz
*
* Freq(Hz) SPL(dB) Phase(degrees)
1.000000 84.249 122.3977
1.015000 84.061 121.5293
1.030000 83.865 120.6590
1.044000 83.674 119.8450
1.060000 83.447 118.9123
1.075000 83.224 118.0356
1.090000 82.992 117.1563
1.106000 82.733 116.1770
1.120000 82.499 115.0782
1.138000 82.187 113.3224
1.150000 81.973 111.9689
1.172000 81.567 109.1847
1.180000 81.416 108.0951
1.206000 80.909 104.3683
1.220000 80.628 102.2974
1.241000 80.194 99.1959
1.250000 80.004 97.8921
1.265000 79.683 95.7851
1.280000 79.355 93.7956
1.315000 78.568 89.8363
1.320000 78.452 89.3706
1.340000 77.986 87.8172
1.360000 77.510 86.8304
1.380000 77.025 86.5056
1.400000 76.531 86.9382
1.430000 75.775 89.2160
1.450000 75.262 91.9596
1.475000 74.600 97.0045
1.500000 73.835 104.4513
1.525000 72.969 114.1069
1.550000 72.025 125.5965
1.575000 71.031 138.5456
1.600000 70.009 152.5791
1.625000 68.986 167.3225
1.650000 67.987 -177.5991
1.675000 67.035 -162.5603
1.700000 66.157 -147.9359
1.725000 65.377 -134.1006
1.750000 64.720 -121.4293
1.775000 64.211 -110.2967
1.800000 63.875 -101.0774
1.825000 63.737 -94.1462
1.850000 63.828 -89.5881
1.875000 64.154 -86.7929
1.900000 64.685 -85.5392
1.925000 65.390 -85.6291
1.950000 66.238 -86.8652
1.975000 67.197 -89.0499
2.000000 68.235 -91.9855
2.030000 69.542 -96.2211
2.060000 70.864 -100.9120
2.090000 72.147 -105.7168
2.120000 73.336 -110.2939
2.140000 74.050 -113.0501
2.180000 75.217 -117.3992
2.200000 75.638 -118.7952
2.240000 76.282 -121.0537
2.270000 76.651 -122.6639
2.300000 76.936 -124.2075
2.330000 77.147 -125.6890
2.360000 77.295 -127.1129
2.400000 77.413 -128.9299
2.430000 77.458 -130.2373
2.470000 77.477 -131.9155
2.500000 77.477 -133.1311
2.540000 77.478 -134.7035
2.580000 77.495 -136.2384
2.620000 77.479 -137.8000
2.650000 77.438 -138.9745
2.690000 77.345 -140.5091
2.720000 77.250 -141.6118
2.760000 77.092 -142.9817
2.800000 76.900 -144.1957
2.850000 76.621 -145.4256
2.900000 76.302 -146.2538
2.950000 75.941 -146.6310
3.000000 75.474 -146.8104
3.040000 75.037 -146.8011
3.070000 74.684 -146.6700
3.110000 74.199 -146.2867
3.150000 73.716 -145.6162
3.200000 73.145 -144.2924
3.250000 72.650 -142.3317
3.300000 72.271 -139.6270
3.350000 71.969 -135.7394
3.400000 71.705 -130.6963
3.450000 71.492 -124.9195
3.500000 71.340 -118.8304
3.550000 71.261 -112.8509
3.600000 71.267 -107.4023
3.650000 71.370 -102.9064
3.700000 71.600 -99.4825
3.750000 71.988 -96.5955
3.820000 72.712 -93.3396
3.870000 73.296 -91.5241
3.950000 74.216 -89.3985
4.000000 74.710 -88.4982
4.060000 75.168 -87.8639
4.120000 75.567 -87.9916
4.180000 75.922 -88.7365
4.250000 76.278 -90.1059
4.310000 76.531 -91.4687
4.370000 76.734 -92.7846
4.440000 76.903 -94.1641
4.500000 76.986 -95.5237
4.550000 77.017 -96.7438
4.620000 77.007 -98.4810
4.680000 76.958 -99.9009
4.750000 76.862 -101.3519
4.820000 76.716 -102.6059
4.870000 76.571 -103.4829
4.940000 76.325 -104.6063
5.000000 76.087 -105.3989
5.080000 75.753 -106.0882
5.150000 75.462 -106.2376
5.220000 75.128 -105.9761
5.300000 74.712 -105.2614
5.380000 74.311 -104.1845
5.450000 74.011 -103.0121
5.520000 73.791 -101.6454
5.600000 73.606 -99.5223
5.700000 73.459 -96.4064
5.800000 73.406 -93.4929
5.900000 73.458 -91.4514
6.000000 73.654 -89.9657
6.080000 73.873 -89.1396
6.150000 74.071 -88.7360
6.220000 74.244 -88.6757
6.300000 74.416 -89.1120
6.400000 74.634 -90.3455
6.500000 74.824 -92.0639
6.600000 74.955 -93.9695
6.700000 75.019 -96.1639
6.800000 75.032 -98.6702
6.900000 75.002 -101.2282
7.000000 74.933 -103.6253
7.100000 74.810 -106.0315
7.200000 74.652 -108.3621
7.300000 74.485 -110.4469
7.400000 74.316 -112.1881
7.500000 74.124 -113.6747
7.620000 73.911 -115.1286
7.750000 73.758 -116.2607
7.880000 73.665 -116.8363
8.000000 73.645 -117.1747
8.120000 73.713 -117.5840
8.250000 73.887 -117.9427
8.380000 74.120 -118.4345
8.500000 74.362 -119.2182
8.620000 74.650 -120.2518
8.750000 74.967 -121.5538
8.850000 75.189 -122.6558
9.000000 75.509 -124.5486
9.120000 75.743 -126.0765
9.250000 75.958 -127.6161
9.380000 76.140 -129.1109
9.500000 76.288 -130.3311
9.620000 76.419 -131.3269
9.750000 76.538 -132.2051
9.880000 76.654 -132.8776
10.000000 76.763 -133.2886
10.150000 76.899 -133.5565
10.300000 77.047 -133.6662
10.440000 77.200 -133.6547
10.600000 77.380 -133.6429
10.750000 77.553 -133.6262
10.900000 77.728 -133.6086
11.060000 77.900 -133.6241
11.200000 78.040 -133.6706
11.380000 78.201 -133.7227
11.500000 78.295 -133.7451
11.720000 78.446 -133.7556
11.800000 78.495 -133.7402
12.060000 78.634 -133.6481
12.200000 78.702 -133.5993
12.410000 78.790 -133.5356
12.500000 78.823 -133.5311
12.650000 78.872 -133.5509
12.800000 78.910 -133.5980
13.150000 78.950 -133.8087
13.200000 78.951 -133.8390
13.400000 78.942 -133.9579
13.600000 78.924 -134.0577
13.800000 78.900 -134.1219
14.000000 78.882 -134.2094
14.300000 78.868 -134.4303
14.500000 78.869 -134.7236
14.750000 78.870 -135.2811
15.000000 78.867 -136.0509
15.250000 78.851 -136.9608
15.500000 78.826 -137.9112
15.750000 78.798 -138.8488
16.000000 78.782 -139.7167
16.250000 78.788 -140.5510
16.500000 78.821 -141.3798
16.750000 78.879 -142.2560
17.000000 78.950 -143.1868
17.250000 79.030 -144.1472
17.500000 79.110 -145.0975
17.750000 79.188 -145.9666
18.000000 79.267 -146.7343
18.250000 79.348 -147.3797
18.500000 79.435 -147.9228
18.750000 79.525 -148.3825
19.000000 79.616 -148.7762
19.250000 79.702 -149.1136
19.500000 79.784 -149.3918
19.750000 79.859 -149.6108
20.000000 79.928 -149.7774
20.299999 80.003 -149.9372
20.600000 80.068 -150.0822
20.900000 80.119 -150.2347
21.200001 80.151 -150.3927
21.400000 80.163 -150.4865
21.799999 80.169 -150.6359
22.000000 80.169 -150.6989
22.400000 80.169 -150.8534
22.700001 80.169 -151.0551
23.000000 80.166 -151.3663
23.299999 80.154 -151.7668
23.600000 80.134 -152.2145
24.000000 80.102 -152.8209
24.299999 80.084 -153.2656
24.700001 80.079 -153.8785
25.000000 80.088 -154.3866
25.400000 80.112 -155.1367
25.799999 80.141 -155.9143
26.200001 80.173 -156.6420
26.500000 80.202 -157.1301
26.900000 80.248 -157.7043
27.200001 80.287 -158.0854
27.600000 80.341 -158.5302
28.000000 80.394 -158.8999
28.500000 80.458 -159.2728
29.000000 80.514 -159.5929
29.500000 80.553 -159.8829
30.000000 80.574 -160.1338
30.400000 80.582 -160.3167
30.700001 80.585 -160.4605
31.100000 80.582 -160.6779
31.500000 80.573 -160.9214
32.000000 80.558 -161.2439
32.500000 80.546 -161.5969
33.000000 80.543 -162.0261
33.500000 80.541 -162.5344
34.000000 80.539 -163.0557
34.500000 80.542 -163.5314
35.000000 80.556 -163.9656
35.500000 80.580 -164.3866
36.000000 80.608 -164.7938
36.500000 80.634 -165.1679
37.000000 80.658 -165.4995
37.500000 80.679 -165.7921
38.200001 80.701 -166.1539
38.700001 80.711 -166.3975
39.500000 80.715 -166.7741
40.000000 80.714 -166.9995
40.599998 80.713 -167.2892
41.200001 80.711 -167.6187
41.799999 80.706 -167.9484
42.500000 80.709 -168.3199
43.099998 80.717 -168.6818
43.700001 80.720 -169.0565
44.400002 80.722 -169.4219
45.000000 80.730 -169.7044
45.500000 80.737 -169.9567
46.200001 80.738 -170.2866
46.799999 80.741 -170.5228
47.500000 80.749 -170.8395
48.200001 80.744 -171.1991
48.700001 80.734 -171.4034
49.400002 80.731 -171.6040
50.000000 80.744 -171.8159
50.799999 80.755 -172.2318
51.500000 80.746 -172.5554
52.200001 80.741 -172.7652
53.000000 80.748 -173.0503
53.799999 80.740 -173.3949
54.500000 80.727 -173.6091
55.200001 80.724 -173.8207
56.000000 80.720 -174.1448
57.000000 80.710 -174.5229
58.000000 80.706 -174.9203
59.000000 80.695 -175.2583
60.000000 80.699 -175.5180
60.799999 80.702 -175.7699
61.500000 80.698 -175.9785
62.200001 80.691 -176.1635
63.000000 80.683 -176.3865
64.000000 80.666 -176.6550
65.000000 80.658 -176.9276
66.000000 80.650 -177.2840
67.000000 80.634 -177.6079
68.000000 80.624 -177.8632
69.000000 80.614 -178.1289
70.000000 80.596 -178.3301
71.000000 80.583 -178.4995
72.000000 80.564 -178.6927
73.000000 80.543 -178.8453
74.000000 80.524 -178.9814
75.000000 80.511 -179.1102
76.199997 80.495 -179.2846
77.500000 80.480 -179.4118
78.800003 80.479 -179.4950
80.000000 80.487 -179.6655
81.199997 80.503 -179.8340
82.500000 80.516 179.8115
83.800003 80.526 179.5829
85.000000 80.531 179.2583
86.199997 80.523 179.0369
87.500000 80.518 178.8051
88.500000 80.518 178.5820
90.000000 80.490 178.2126
91.199997 80.480 178.0645
92.500000 80.469 177.8054
93.800003 80.462 177.6350
95.000000 80.445 177.3442
96.199997 80.419 177.2282
97.500000 80.409 177.0285
98.800003 80.397 176.7635
100.000000 80.361 176.5641
101.500000 80.364 176.4872
103.000000 80.342 176.2548
104.400002 80.333 176.0788
106.000000 80.313 175.9621
107.500000 80.290 175.7818
109.000000 80.287 175.6470
110.599998 80.261 175.4142
112.000000 80.258 175.3114
113.800003 80.244 174.9810
115.000000 80.237 174.9116
117.199997 80.219 174.6343
118.000000 80.219 174.5570
120.599998 80.192 174.2401
122.000000 80.174 174.0021
124.099998 80.155 173.8054
125.000000 80.140 173.7486
126.500000 80.130 173.5763
128.000000 80.098 173.5099
131.500000 80.063 173.1568
132.000000 80.061 173.1258
134.000000 80.031 172.8791
136.000000 80.005 172.7684
138.000000 79.984 172.6441
140.000000 79.959 172.5791
143.000000 79.927 172.3802
145.000000 79.911 172.3311
147.500000 79.904 172.1855
150.000000 79.894 171.9444
152.500000 79.869 171.7780
155.000000 79.851 171.6096
157.500000 79.828 171.4087
160.000000 79.798 171.1728
162.500000 79.764 171.0226
165.000000 79.732 170.9456
167.500000 79.685 170.7999
170.000000 79.649 170.7827
172.500000 79.632 170.7699
175.000000 79.614 170.9523
177.500000 79.620 170.8831
180.000000 79.631 170.7760
182.500000 79.632 170.5679
185.000000 79.620 170.4131
187.500000 79.594 170.1979
190.000000 79.585 170.0810
192.500000 79.558 169.8971
195.000000 79.533 169.8143
197.500000 79.526 169.6908
200.000000 79.498 169.5495
203.000000 79.478 169.4196
206.000000 79.446 169.2254
209.000000 79.422 169.1212
212.000000 79.395 169.0152
214.000000 79.383 168.9658
218.000000 79.348 168.8309
220.000000 79.329 168.7319
224.000000 79.298 168.6306
227.000000 79.274 168.4926
230.000000 79.251 168.4408
233.000000 79.228 168.4671
236.000000 79.194 168.3432
240.000000 79.162 168.2403
243.000000 79.141 168.2715
247.000000 79.104 168.1630
250.000000 79.088 168.0821
254.000000 79.073 168.0234
258.000000 79.041 167.9124
262.000000 79.017 167.8517
265.000000 79.005 167.8433
269.000000 78.968 167.6852
272.000000 78.955 167.6300
276.000000 78.914 167.6115
280.000000 78.889 167.4902
285.000000 78.865 167.4718
290.000000 78.820 167.4149
295.000000 78.806 167.3388
300.000000 78.769 167.2674
304.000000 78.727 167.2153
307.000000 78.717 167.2386
311.000000 78.695 167.2130
315.000000 78.663 167.1611
320.000000 78.636 167.0754
325.000000 78.605 167.0755
330.000000 78.565 167.0735
335.000000 78.537 167.0222
340.000000 78.509 166.9733
345.000000 78.475 166.9761
350.000000 78.446 166.9874
355.000000 78.421 166.9143
360.000000 78.385 166.9606
365.000000 78.349 166.9905
370.000000 78.324 167.0261
375.000000 78.295 166.9891
382.000000 78.248 167.0827
387.000000 78.238 167.1357
395.000000 78.193 167.1688
400.000000 78.154 167.0443
406.000000 78.119 167.1892
412.000000 78.088 167.2799
418.000000 78.063 167.2597
425.000000 78.025 167.3216
431.000000 77.983 167.4343
437.000000 77.968 167.3631
444.000000 77.936 167.5545
450.000000 77.887 167.5914
455.000000 77.874 167.6583
462.000000 77.834 167.7684
468.000000 77.807 167.8272
475.000000 77.766 167.9363
482.000000 77.743 167.9782
487.000000 77.726 168.1618
494.000000 77.691 168.2245
500.000000 77.653 168.3313
508.000000 77.633 168.4634
515.000000 77.609 168.6502
522.000000 77.570 168.8384
530.000000 77.526 168.9764
538.000000 77.504 169.0556
545.000000 77.480 169.2760
552.000000 77.444 169.4779
560.000000 77.425 169.6318
570.000000 77.381 169.9038
580.000000 77.349 170.1431
590.000000 77.311 170.4626
600.000000 77.274 170.6917
608.000000 77.253 170.8696
615.000000 77.227 171.1360
622.000000 77.206 171.4477
630.000000 77.209 171.5433
640.000000 77.169 171.8179
650.000000 77.141 172.2507
660.000000 77.129 172.5141
670.000000 77.099 172.9352
680.000000 77.076 173.1898
690.000000 77.059 173.6197
700.000000 77.046 173.9157
710.000000 77.037 174.3819
720.000000 77.020 174.7311
730.000000 77.001 175.1353
740.000000 76.984 175.5045
750.000000 76.995 175.9531
762.000000 76.975 176.5110
775.000000 76.978 177.0163
788.000000 76.989 177.6047
800.000000 77.001 178.2602
812.000000 77.007 178.6818
825.000000 77.013 179.2021
838.000000 77.052 179.6831
850.000000 77.071 -179.6799
862.000000 77.110 -179.2684
875.000000 77.149 -178.5709
885.000000 77.181 -178.1540
900.000000 77.260 -177.4324
912.000000 77.304 -176.8808
925.000000 77.363 -176.4709
938.000000 77.436 -176.0422
950.000000 77.498 -175.6408
962.000000 77.565 -175.3027
975.000000 77.642 -174.7649
988.000000 77.719 -174.5744
1000.000000 77.752 -174.2659
1015.000000 77.862 -173.8816
1030.000000 77.973 -173.5952
1044.000000 78.058 -173.3428
1060.000000 78.165 -173.0722
1075.000000 78.261 -172.8040
1090.000000 78.365 -172.7193
1106.000000 78.453 -172.5670
1120.000000 78.540 -172.4360
1138.000000 78.665 -172.4809
1150.000000 78.733 -172.4836
1172.000000 78.870 -172.4818
1180.000000 78.918 -172.5341
1206.000000 79.043 -172.6437
1220.000000 79.121 -172.6077
1241.000000 79.222 -172.8571
1250.000000 79.263 -172.8436
1265.000000 79.334 -172.9475
1280.000000 79.410 -173.0190
1315.000000 79.576 -173.3312
1320.000000 79.592 -173.3228
1340.000000 79.677 -173.5026
1360.000000 79.774 -173.7216
1380.000000 79.836 -173.9694
1400.000000 79.920 -174.1284
1430.000000 80.051 -174.4119
1450.000000 80.111 -174.6588
1475.000000 80.202 -174.9503
1500.000000 80.280 -175.2497
1525.000000 80.367 -175.6576
1550.000000 80.454 -176.0050
1575.000000 80.531 -176.1987
1600.000000 80.596 -176.5163
1625.000000 80.687 -176.8351
1650.000000 80.775 -177.2239
1675.000000 80.847 -177.5290
1700.000000 80.916 -177.9886
1725.000000 80.999 -178.3319
1750.000000 81.067 -178.7304
1775.000000 81.135 -179.1562
1800.000000 81.213 -179.5355
1825.000000 81.269 179.9730
1850.000000 81.334 179.4254
1875.000000 81.402 179.0421
1900.000000 81.449 178.5125
1925.000000 81.511 178.0967
1950.000000 81.566 177.5725
1975.000000 81.609 176.9418
2000.000000 81.682 176.5370
2030.000000 81.697 175.8612
2060.000000 81.741 175.0819
2090.000000 81.774 174.4724
2120.000000 81.793 173.7777
2140.000000 81.803 173.2688
2180.000000 81.806 172.5736
2200.000000 81.809 172.1816
2240.000000 81.798 171.5223
2270.000000 81.788 171.3087
2300.000000 81.792 171.2282
2330.000000 81.836 171.1016
2360.000000 81.913 170.9747
2400.000000 82.067 170.3071
2430.000000 82.145 169.5174
2470.000000 82.208 168.1364
2500.000000 82.225 167.2751
2540.000000 82.208 166.1037
2580.000000 82.176 165.1606
2620.000000 82.137 164.3617
2650.000000 82.092 163.8525
2690.000000 82.086 163.1070
2720.000000 82.066 162.5846
2760.000000 82.042 161.8316
2800.000000 82.009 161.1328
2850.000000 81.955 160.1692
2900.000000 81.887 159.3063
2950.000000 81.810 158.4554
3000.000000 81.714 157.9846
3040.000000 81.644 157.3547
3070.000000 81.608 156.9517
3110.000000 81.528 156.5439
3150.000000 81.472 156.2161
3200.000000 81.384 155.8645
3250.000000 81.295 155.5339
3300.000000 81.221 155.1904
3350.000000 81.147 154.7641
3400.000000 81.067 154.4430
3450.000000 81.000 154.2191
3500.000000 80.904 153.8388
3550.000000 80.786 153.6295
3600.000000 80.669 153.3838
3650.000000 80.531 153.3958
3700.000000 80.397 153.7446
3750.000000 80.280 154.1251
3820.000000 80.160 154.9601
3870.000000 80.107 155.9923
3950.000000 80.143 157.0099
4000.000000 80.185 157.5840
4060.000000 80.250 157.6356
4120.000000 80.291 157.8519
4180.000000 80.350 157.7569
4250.000000 80.402 157.6643
4310.000000 80.441 157.5456
4370.000000 80.451 157.3976
4440.000000 80.465 157.0043
4500.000000 80.474 156.6990
4550.000000 80.481 156.5294
4620.000000 80.453 156.1345
4680.000000 80.422 155.7207
4750.000000 80.405 155.3830
4820.000000 80.343 155.0552
4870.000000 80.293 154.7272
4940.000000 80.228 154.3981
5000.000000 80.164 153.9986
5080.000000 80.037 153.8938
5150.000000 79.924 153.8185
5220.000000 79.807 153.7372
5300.000000 79.689 153.7583
5380.000000 79.516 153.8064
5450.000000 79.393 154.0493
5520.000000 79.264 154.3762
5600.000000 79.101 155.0293
5700.000000 78.920 155.7278
5800.000000 78.767 156.8462
5900.000000 78.587 157.9902
6000.000000 78.463 159.3381
6080.000000 78.372 160.5886
6150.000000 78.280 161.8040
6220.000000 78.212 162.8609
6300.000000 78.161 164.4644
6400.000000 78.109 166.3179
6500.000000 78.184 168.2155
6600.000000 78.262 170.2003
6700.000000 78.355 171.8654
6800.000000 78.537 173.6415
6900.000000 78.728 175.1284
7000.000000 78.951 176.2522
7100.000000 79.232 177.1873
7200.000000 79.562 177.5753
7300.000000 79.890 178.0172
7400.000000 80.261 177.4817
7500.000000 80.605 176.4968
7620.000000 80.989 174.5549
7750.000000 81.356 171.6533
7880.000000 81.596 167.6655
8000.000000 81.653 163.3748
8120.000000 81.545 158.9619
8250.000000 81.220 154.0162
8380.000000 80.691 149.9322
8500.000000 80.024 146.6750
8620.000000 79.312 144.7453
8750.000000 78.464 143.9744
8850.000000 77.847 143.7108
9000.000000 76.955 144.9716
9120.000000 76.332 146.7973
9250.000000 75.739 148.8068
9380.000000 75.259 151.1404
9500.000000 74.793 153.5404
9620.000000 74.310 156.0715
9750.000000 73.853 159.3875
9880.000000 73.426 162.0233
10000.000000 73.068 165.7617
10150.000000 72.792 170.2504
10300.000000 72.527 174.7240
10440.000000 72.335 179.2360
10600.000000 72.185 -175.5414
10750.000000 72.167 -170.3854
10900.000000 72.182 -164.9250
11060.000000 72.465 -159.1132
11200.000000 72.653 -154.4035
11380.000000 73.146 -148.8939
11500.000000 73.549 -145.1334
11720.000000 74.625 -138.8846
11800.000000 75.015 -137.0983
12060.000000 76.954 -133.7632
12200.000000 78.191 -134.0866
12410.000000 80.281 -140.7246
12500.000000 81.080 -146.7392
12650.000000 81.886 -161.3378
12800.000000 81.426 -177.2901
13150.000000 77.610 163.4009
13200.000000 77.047 162.7860
13400.000000 74.964 162.8395
13600.000000 73.225 166.2775
13800.000000 71.863 170.6303
14000.000000 70.694 176.0062
14300.000000 69.474 -173.9502
14500.000000 68.902 -166.4513
14750.000000 68.562 -159.3973
15000.000000 68.615 -150.6202
15250.000000 68.893 -142.3664
15500.000000 69.272 -137.9492
15750.000000 70.269 -133.9113
16000.000000 71.400 -133.9875
16250.000000 72.683 -139.9810
16500.000000 73.121 -153.5567
16750.000000 71.981 -169.2220
17000.000000 69.661 -178.5609
17250.000000 66.922 179.4122
17500.000000 64.607 -179.1198
17750.000000 62.189 -175.1851
18000.000000 59.837 -167.2461
18250.000000 58.303 -159.6822
18500.000000 56.807 -153.2946
18750.000000 54.729 -143.4839
19000.000000 52.668 -134.9759
19250.000000 50.508 -121.5204
19500.000000 48.973 -121.6607
19750.000000 46.090 -102.3960
20000.000000 47.213 -83.1880
20300.000000 45.101 -75.2753
20600.000000 42.420 -50.7624
20900.000000 38.845 -24.4711
21200.000000 34.740 -33.0002
21400.000000 36.595 -31.8336
21800.000000 27.699 -53.8621
22000.000000 27.132 58.3813
22400.000000 16.780 -46.6387
22700.000000 20.739 -9.6592
23000.000000 14.362 -2.9727
23300.000000 4.764 108.4141
23600.000000 29.045 12.1953

