* Measurement data measured by REW V5.20.13
* Source: Microphone (USB Sound Device        ), MICROPHONE (Master Volume), R, volume: 0,250
* Format: 256k Log Swept Sine, 1 sweep at -12,0 dBFS with no timing reference
* Dated: 15:48:52 21-07-2024
* REW Settings:
*  C-weighting compensation: Off
*  Target level: 75.0 dB
* Note: ; 
* Measurement: MiM DM 2.5 400 Hana R
* Smoothing: None
* Frequency Step: 1/48 octave
* Start Frequency: 1.000 Hz
*
* Freq(Hz) SPL(dB) Phase(degrees)
1.000000 83.869 123.9666
1.015000 83.671 123.1289
1.030000 83.463 122.2902
1.044000 83.261 121.5062
1.060000 83.018 120.6087
1.075000 82.779 119.7657
1.090000 82.529 118.9211
1.106000 82.248 117.9809
1.120000 81.985 116.9249
1.138000 81.625 115.2364
1.150000 81.372 113.9342
1.172000 80.885 111.2552
1.180000 80.701 110.2067
1.206000 80.080 106.6207
1.220000 79.734 104.6284
1.241000 79.202 101.6454
1.250000 78.970 100.3919
1.265000 78.580 98.3669
1.280000 78.186 96.4561
1.315000 77.262 92.6594
1.320000 77.130 92.2138
1.340000 76.605 90.7312
1.360000 76.086 89.7971
1.380000 75.577 89.5039
1.400000 75.082 89.9437
1.430000 74.372 92.1796
1.450000 73.925 94.8554
1.475000 73.395 99.7616
1.500000 72.836 106.9776
1.525000 72.242 116.3170
1.550000 71.628 127.4215
1.575000 71.005 139.9326
1.600000 70.388 153.4917
1.625000 69.788 167.7402
1.650000 69.218 -177.6803
1.675000 68.693 -163.1282
1.700000 68.223 -148.9621
1.725000 67.823 -135.5406
1.750000 67.506 -123.2222
1.775000 67.283 -112.3652
1.800000 67.168 -103.3284
1.825000 67.175 -96.4700
1.850000 67.326 -91.8647
1.875000 67.643 -88.9155
1.900000 68.104 -87.4146
1.925000 68.686 -87.1781
1.950000 69.369 -88.0219
1.975000 70.127 -89.7621
2.000000 70.941 -92.2147
2.030000 71.956 -95.8390
2.060000 72.979 -99.9062
2.090000 73.970 -104.0984
2.120000 74.889 -108.0975
2.140000 75.444 -110.4993
2.180000 76.360 -114.2449
2.200000 76.700 -115.4056
2.240000 77.230 -117.2798
2.270000 77.542 -118.6513
2.300000 77.789 -119.9909
2.330000 77.979 -121.2960
2.360000 78.120 -122.5641
2.400000 78.246 -124.1930
2.430000 78.304 -125.3649
2.470000 78.349 -126.8565
2.500000 78.369 -127.9187
2.540000 78.391 -129.2547
2.580000 78.420 -130.5043
2.620000 78.414 -131.7436
2.650000 78.380 -132.6598
2.690000 78.302 -133.8347
2.720000 78.222 -134.6613
2.760000 78.090 -135.6613
2.800000 77.935 -136.5118
2.850000 77.716 -137.3095
2.900000 77.479 -137.7466
2.950000 77.229 -137.7682
3.000000 76.910 -137.4685
3.040000 76.613 -137.0158
3.070000 76.375 -136.5504
3.110000 76.050 -135.7603
3.150000 75.730 -134.7741
3.200000 75.360 -133.2621
3.250000 75.051 -131.4352
3.300000 74.832 -129.2869
3.350000 74.684 -126.5298
3.400000 74.580 -123.1297
3.450000 74.521 -119.3298
3.500000 74.507 -115.3734
3.550000 74.541 -111.5038
3.600000 74.621 -107.9641
3.650000 74.750 -104.9976
3.700000 74.943 -102.6662
3.750000 75.225 -100.6508
3.820000 75.724 -98.3122
3.870000 76.119 -96.9720
3.950000 76.743 -95.3694
4.000000 77.088 -94.6893
4.060000 77.428 -94.2228
4.120000 77.740 -94.2930
4.180000 78.031 -94.7996
4.250000 78.335 -95.7588
4.310000 78.559 -96.7393
4.370000 78.744 -97.7206
4.440000 78.902 -98.8110
4.500000 78.993 -99.9160
4.550000 79.039 -100.9219
4.620000 79.066 -102.3743
4.680000 79.057 -103.5804
4.750000 79.018 -104.8391
4.820000 78.941 -105.9481
4.870000 78.855 -106.7280
4.940000 78.701 -107.7520
5.000000 78.550 -108.5185
5.080000 78.336 -109.3007
5.150000 78.150 -109.6885
5.220000 77.937 -109.8094
5.300000 77.672 -109.6765
5.380000 77.412 -109.3058
5.450000 77.215 -108.8284
5.520000 77.064 -108.2231
5.600000 76.926 -107.1887
5.700000 76.802 -105.5947
5.800000 76.740 -104.0710
5.900000 76.753 -102.9890
6.000000 76.861 -102.1282
6.080000 76.992 -101.6204
6.150000 77.116 -101.3769
6.220000 77.234 -101.3777
6.300000 77.365 -101.7264
6.400000 77.547 -102.6044
6.500000 77.721 -103.8229
6.600000 77.858 -105.2218
6.700000 77.955 -106.8829
6.800000 78.024 -108.7988
6.900000 78.065 -110.7747
7.000000 78.076 -112.6512
7.100000 78.049 -114.5558
7.200000 77.997 -116.4250
7.300000 77.937 -118.1312
7.400000 77.872 -119.6031
7.500000 77.790 -120.9085
7.620000 77.698 -122.2499
7.750000 77.641 -123.3931
7.880000 77.614 -124.1628
8.000000 77.625 -124.7137
8.120000 77.689 -125.2529
8.250000 77.815 -125.7235
8.380000 77.979 -126.2326
8.500000 78.151 -126.8760
8.620000 78.354 -127.6343
8.750000 78.580 -128.5595
8.850000 78.743 -129.3474
9.000000 78.983 -130.6834
9.120000 79.162 -131.7697
9.250000 79.330 -132.8910
9.380000 79.478 -133.9987
9.500000 79.600 -134.9248
9.620000 79.709 -135.7101
9.750000 79.812 -136.4380
9.880000 79.911 -137.0330
10.000000 80.003 -137.4443
10.150000 80.115 -137.7986
10.300000 80.234 -138.0682
10.440000 80.352 -138.2277
10.600000 80.491 -138.3670
10.750000 80.621 -138.5164
10.900000 80.752 -138.6635
11.060000 80.880 -138.8415
11.200000 80.983 -139.0179
11.380000 81.102 -139.2356
11.500000 81.170 -139.3701
11.720000 81.278 -139.5875
11.800000 81.313 -139.6494
12.060000 81.410 -139.8080
12.200000 81.457 -139.8846
12.410000 81.518 -139.9967
12.500000 81.542 -140.0605
12.650000 81.577 -140.1835
12.800000 81.606 -140.3295
13.150000 81.642 -140.7723
13.200000 81.644 -140.8398
13.400000 81.642 -141.1215
13.600000 81.632 -141.4028
13.800000 81.618 -141.6715
14.000000 81.605 -141.9565
14.300000 81.593 -142.4404
14.500000 81.594 -142.8528
14.750000 81.596 -143.4918
15.000000 81.598 -144.2706
15.250000 81.594 -145.1471
15.500000 81.584 -146.0525
15.750000 81.574 -146.9486
16.000000 81.571 -147.7903
16.250000 81.584 -148.5963
16.500000 81.614 -149.3838
16.750000 81.661 -150.1880
17.000000 81.719 -151.0180
17.250000 81.781 -151.8585
17.500000 81.843 -152.6841
17.750000 81.902 -153.4438
18.000000 81.960 -154.1223
18.250000 82.020 -154.7034
18.500000 82.082 -155.2030
18.750000 82.147 -155.6389
19.000000 82.212 -156.0274
19.250000 82.274 -156.3818
19.500000 82.330 -156.6998
19.750000 82.380 -156.9805
20.000000 82.422 -157.2221
20.299999 82.465 -157.4727
20.600000 82.498 -157.6955
20.900000 82.521 -157.9055
21.200001 82.532 -158.1071
21.400000 82.534 -158.2320
21.799999 82.528 -158.4582
22.000000 82.523 -158.5679
22.400000 82.516 -158.8199
22.700001 82.514 -159.0808
23.000000 82.510 -159.4300
23.299999 82.502 -159.8544
23.600000 82.489 -160.3239
24.000000 82.469 -160.9714
24.299999 82.458 -161.4563
24.700001 82.456 -162.1182
25.000000 82.463 -162.6453
25.400000 82.479 -163.3893
25.799999 82.497 -164.1348
26.200001 82.517 -164.8223
26.500000 82.535 -165.2827
26.900000 82.565 -165.8298
27.200001 82.591 -166.2017
27.600000 82.626 -166.6541
28.000000 82.659 -167.0529
28.500000 82.693 -167.4759
29.000000 82.720 -167.8412
29.500000 82.736 -168.1745
30.000000 82.740 -168.4855
30.400000 82.737 -168.7300
30.700001 82.733 -168.9232
31.100000 82.723 -169.2064
31.500000 82.708 -169.5186
32.000000 82.686 -169.9347
32.500000 82.665 -170.3745
33.000000 82.649 -170.8504
33.500000 82.635 -171.3568
34.000000 82.625 -171.8610
34.500000 82.622 -172.3457
35.000000 82.626 -172.8218
35.500000 82.631 -173.2869
36.000000 82.634 -173.7093
36.500000 82.637 -174.0698
37.000000 82.642 -174.3879
37.500000 82.646 -174.6910
38.200001 82.644 -175.0943
38.700001 82.637 -175.3611
39.500000 82.620 -175.7721
40.000000 82.607 -176.0280
40.599998 82.592 -176.3424
41.200001 82.580 -176.6808
41.799999 82.568 -177.0407
42.500000 82.556 -177.4706
43.099998 82.546 -177.8401
43.700001 82.535 -178.1877
44.400002 82.526 -178.5543
45.000000 82.520 -178.8719
45.500000 82.513 -179.1458
46.200001 82.496 -179.4969
46.799999 82.484 -179.7730
47.500000 82.470 179.8605
48.200001 82.446 179.4803
48.700001 82.426 179.2540
49.400002 82.407 178.9829
50.000000 82.400 178.7253
50.799999 82.388 178.3304
51.500000 82.371 178.0015
52.200001 82.353 177.7199
53.000000 82.334 177.4222
53.799999 82.314 177.1257
54.500000 82.295 176.8745
55.200001 82.275 176.6210
56.000000 82.252 176.3290
57.000000 82.225 175.9570
58.000000 82.199 175.5905
59.000000 82.179 175.2703
60.000000 82.161 174.9172
60.799999 82.140 174.6679
61.500000 82.123 174.4826
62.200001 82.106 174.2934
63.000000 82.084 174.0654
64.000000 82.054 173.7755
65.000000 82.024 173.5050
66.000000 82.001 173.2087
67.000000 81.972 172.9137
68.000000 81.950 172.6833
69.000000 81.929 172.3999
70.000000 81.896 172.1556
71.000000 81.869 171.9480
72.000000 81.834 171.6702
73.000000 81.790 171.4837
74.000000 81.763 171.3420
75.000000 81.744 171.1215
76.199997 81.716 170.8298
77.500000 81.684 170.5504
78.800003 81.656 170.2789
80.000000 81.617 170.0444
81.199997 81.592 169.9143
82.500000 81.561 169.6456
83.800003 81.515 169.4463
85.000000 81.478 169.3391
86.199997 81.443 169.1005
87.500000 81.386 168.9682
88.500000 81.352 168.8823
90.000000 81.318 168.8608
91.199997 81.298 168.7664
92.500000 81.280 168.7023
93.800003 81.258 168.6118
95.000000 81.240 168.4431
96.199997 81.213 168.3740
97.500000 81.207 168.1071
98.800003 81.183 167.9961
100.000000 81.179 167.6693
101.500000 81.125 167.7070
103.000000 81.132 167.4917
104.400002 81.091 167.4059
106.000000 81.065 167.1223
107.500000 81.024 166.9488
109.000000 80.973 166.8863
110.599998 80.971 166.7541
112.000000 80.935 166.6244
113.800003 80.893 166.4536
115.000000 80.872 166.4046
117.199997 80.833 166.2550
118.000000 80.815 166.2400
120.599998 80.763 166.1359
122.000000 80.755 166.1701
124.099998 80.733 166.1699
125.000000 80.722 166.0624
126.500000 80.710 166.0193
128.000000 80.689 165.8113
131.500000 80.677 165.4876
132.000000 80.677 165.4404
134.000000 80.646 165.1975
136.000000 80.620 164.9792
138.000000 80.577 164.7977
140.000000 80.543 164.6025
143.000000 80.489 164.3734
145.000000 80.459 164.2168
147.500000 80.402 164.0697
150.000000 80.362 163.8832
152.500000 80.329 163.8207
155.000000 80.289 163.8012
157.500000 80.241 163.6402
160.000000 80.206 163.5723
162.500000 80.178 163.5160
165.000000 80.137 163.4487
167.500000 80.107 163.3410
170.000000 80.074 163.2706
172.500000 80.041 163.1547
175.000000 80.007 163.0479
177.500000 79.972 162.9577
180.000000 79.942 162.8466
182.500000 79.905 162.8011
185.000000 79.874 162.7230
187.500000 79.837 162.6133
190.000000 79.808 162.5588
192.500000 79.779 162.4772
195.000000 79.749 162.4614
197.500000 79.719 162.4132
200.000000 79.689 162.3750
203.000000 79.644 162.3224
206.000000 79.606 162.2419
209.000000 79.574 162.1545
212.000000 79.533 162.1117
214.000000 79.512 162.1379
218.000000 79.470 162.0725
220.000000 79.445 162.0939
224.000000 79.402 162.0583
227.000000 79.365 161.9957
230.000000 79.338 161.9230
233.000000 79.309 161.9403
236.000000 79.284 161.9417
240.000000 79.240 161.8482
243.000000 79.209 161.8754
247.000000 79.172 161.8017
250.000000 79.132 161.8020
254.000000 79.099 161.8045
258.000000 79.060 161.8310
262.000000 79.016 161.7770
265.000000 78.998 161.7590
269.000000 78.957 161.7885
272.000000 78.934 161.7778
276.000000 78.895 161.7560
280.000000 78.852 161.7684
285.000000 78.822 161.7575
290.000000 78.779 161.7804
295.000000 78.729 161.7612
300.000000 78.689 161.7785
304.000000 78.654 161.8074
307.000000 78.635 161.8096
311.000000 78.590 161.8896
315.000000 78.565 161.8554
320.000000 78.527 162.0022
325.000000 78.481 161.9879
330.000000 78.447 162.0272
335.000000 78.416 161.9762
340.000000 78.358 162.0318
345.000000 78.340 162.0234
350.000000 78.298 162.1127
355.000000 78.260 162.2081
360.000000 78.225 162.2103
365.000000 78.183 162.3555
370.000000 78.146 162.3994
375.000000 78.123 162.3842
382.000000 78.071 162.5442
387.000000 78.037 162.6187
395.000000 77.980 162.6865
400.000000 77.948 162.7632
406.000000 77.907 162.8337
412.000000 77.882 163.0090
418.000000 77.832 163.0373
425.000000 77.789 163.1677
431.000000 77.764 163.3234
437.000000 77.718 163.4211
444.000000 77.676 163.5898
450.000000 77.636 163.6675
455.000000 77.610 163.7944
462.000000 77.567 163.9557
468.000000 77.537 164.0498
475.000000 77.484 164.2046
482.000000 77.461 164.4641
487.000000 77.428 164.5509
494.000000 77.391 164.7175
500.000000 77.366 164.9122
508.000000 77.318 165.1219
515.000000 77.305 165.3136
522.000000 77.272 165.4522
530.000000 77.222 165.6318
538.000000 77.199 165.9507
545.000000 77.153 166.0640
552.000000 77.132 166.3491
560.000000 77.097 166.5190
570.000000 77.055 166.8391
580.000000 77.008 167.1744
590.000000 76.973 167.4829
600.000000 76.934 167.8466
608.000000 76.909 168.0143
615.000000 76.889 168.3132
622.000000 76.871 168.5566
630.000000 76.834 168.8564
640.000000 76.802 169.2255
650.000000 76.785 169.5131
660.000000 76.745 169.9227
670.000000 76.704 170.3257
680.000000 76.677 170.6926
690.000000 76.662 171.1076
700.000000 76.634 171.5095
710.000000 76.607 172.0104
720.000000 76.569 172.3867
730.000000 76.551 172.8574
740.000000 76.541 173.5187
750.000000 76.555 174.0306
762.000000 76.551 174.5820
775.000000 76.543 175.0194
788.000000 76.544 175.6712
800.000000 76.556 176.1971
812.000000 76.554 176.7757
825.000000 76.580 177.3383
838.000000 76.578 177.8455
850.000000 76.592 178.4462
862.000000 76.619 179.1154
875.000000 76.631 179.7965
885.000000 76.643 -179.8654
900.000000 76.676 -179.0257
912.000000 76.685 -178.5339
925.000000 76.721 -177.7671
938.000000 76.762 -177.1148
950.000000 76.821 -176.3023
962.000000 76.887 -175.5434
975.000000 76.967 -174.9129
988.000000 77.090 -174.1218
1000.000000 77.247 -173.7518
1015.000000 77.346 -173.4231
1030.000000 77.457 -173.1094
1044.000000 77.569 -172.9288
1060.000000 77.662 -172.7563
1075.000000 77.772 -172.5595
1090.000000 77.862 -172.5223
1106.000000 77.954 -172.3199
1120.000000 78.047 -172.2881
1138.000000 78.147 -172.1719
1150.000000 78.221 -172.1003
1172.000000 78.336 -171.9736
1180.000000 78.388 -172.0892
1206.000000 78.504 -172.0917
1220.000000 78.582 -172.1337
1241.000000 78.685 -172.1138
1250.000000 78.721 -172.0336
1265.000000 78.777 -172.1889
1280.000000 78.850 -172.1653
1315.000000 78.999 -172.2002
1320.000000 78.999 -172.2745
1340.000000 79.105 -172.3193
1360.000000 79.171 -172.3037
1380.000000 79.254 -172.4056
1400.000000 79.325 -172.5035
1430.000000 79.419 -172.6443
1450.000000 79.504 -172.7880
1475.000000 79.584 -172.8726
1500.000000 79.674 -172.9640
1525.000000 79.764 -173.1304
1550.000000 79.853 -173.2248
1575.000000 79.937 -173.4359
1600.000000 80.016 -173.4444
1625.000000 80.088 -173.6890
1650.000000 80.176 -173.8399
1675.000000 80.252 -173.9530
1700.000000 80.350 -174.1589
1725.000000 80.428 -174.3442
1750.000000 80.507 -174.5161
1775.000000 80.583 -174.7648
1800.000000 80.663 -175.0689
1825.000000 80.747 -175.2768
1850.000000 80.826 -175.5714
1875.000000 80.913 -175.7673
1900.000000 80.984 -176.1693
1925.000000 81.048 -176.4146
1950.000000 81.137 -176.8273
1975.000000 81.191 -177.2014
2000.000000 81.293 -177.4727
2030.000000 81.346 -178.0988
2060.000000 81.417 -178.6407
2090.000000 81.482 -179.1697
2120.000000 81.534 -179.6378
2140.000000 81.571 -179.9957
2180.000000 81.634 179.3675
2200.000000 81.653 178.9817
2240.000000 81.692 178.4072
2270.000000 81.729 178.1037
2300.000000 81.774 177.8547
2330.000000 81.823 177.6296
2360.000000 81.912 177.2707
2400.000000 81.987 176.7297
2430.000000 82.047 176.1029
2470.000000 82.104 175.5559
2500.000000 82.157 175.1697
2540.000000 82.260 174.6725
2580.000000 82.389 173.8617
2620.000000 82.487 172.6835
2650.000000 82.534 171.7259
2690.000000 82.548 170.4246
2720.000000 82.552 169.6454
2760.000000 82.531 168.4992
2800.000000 82.507 167.5348
2850.000000 82.458 166.3376
2900.000000 82.402 165.2657
2950.000000 82.318 164.3887
3000.000000 82.257 163.3170
3040.000000 82.173 162.9475
3070.000000 82.126 162.4667
3110.000000 82.060 162.0419
3150.000000 81.991 161.5361
3200.000000 81.904 161.0523
3250.000000 81.817 160.6927
3300.000000 81.756 160.3702
3350.000000 81.681 159.9569
3400.000000 81.602 159.6705
3450.000000 81.526 159.4363
3500.000000 81.451 159.0360
3550.000000 81.351 158.7393
3600.000000 81.245 158.5617
3650.000000 81.069 158.4889
3700.000000 80.925 158.9543
3750.000000 80.834 159.8016
3820.000000 80.842 160.8651
3870.000000 80.866 161.2777
3950.000000 80.885 161.7913
4000.000000 80.883 162.2425
4060.000000 80.929 162.1765
4120.000000 80.962 162.3687
4180.000000 80.992 162.6306
4250.000000 81.048 162.7820
4310.000000 81.082 162.5577
4370.000000 81.123 162.7088
4440.000000 81.162 162.5836
4500.000000 81.181 162.5798
4550.000000 81.228 162.4265
4620.000000 81.255 162.2122
4680.000000 81.291 162.0117
4750.000000 81.326 161.7581
4820.000000 81.349 161.4500
4870.000000 81.372 161.1269
4940.000000 81.390 160.6808
5000.000000 81.369 160.2313
5080.000000 81.370 159.5449
5150.000000 81.330 158.8392
5220.000000 81.276 158.2659
5300.000000 81.187 157.7607
5380.000000 81.092 157.2264
5450.000000 80.961 156.8732
5520.000000 80.824 156.6195
5600.000000 80.682 156.5623
5700.000000 80.500 156.7823
5800.000000 80.326 156.9024
5900.000000 80.124 157.6246
6000.000000 79.974 157.9602
6080.000000 79.809 158.7440
6150.000000 79.732 159.5508
6220.000000 79.616 160.3004
6300.000000 79.527 161.2464
6400.000000 79.396 162.7009
6500.000000 79.336 164.0075
6600.000000 79.294 165.4734
6700.000000 79.291 167.0674
6800.000000 79.330 168.6541
6900.000000 79.412 170.2642
7000.000000 79.561 171.7592
7100.000000 79.726 172.9722
7200.000000 79.962 174.2563
7300.000000 80.264 175.0146
7400.000000 80.585 175.2772
7500.000000 80.933 174.5713
7620.000000 81.358 173.1888
7750.000000 81.763 170.6828
7880.000000 82.090 166.8568
8000.000000 82.223 162.5876
8120.000000 82.123 157.6827
8250.000000 81.789 152.4636
8380.000000 81.205 147.6898
8500.000000 80.554 144.5751
8620.000000 79.803 142.5075
8750.000000 78.944 141.4035
8850.000000 78.287 141.2778
9000.000000 77.339 142.1524
9120.000000 76.636 143.4759
9250.000000 75.882 145.5561
9380.000000 75.211 148.4170
9500.000000 74.697 151.2242
9620.000000 74.263 154.2480
9750.000000 73.720 158.0761
9880.000000 73.358 161.9221
10000.000000 72.990 165.8508
10150.000000 72.754 170.3899
10300.000000 72.510 175.9129
10440.000000 72.356 -179.2332
10600.000000 72.326 -173.6034
10750.000000 72.313 -168.5539
10900.000000 72.475 -163.0567
11060.000000 72.809 -157.1472
11200.000000 73.114 -152.8571
11380.000000 73.721 -147.0432
11500.000000 74.268 -143.5373
11720.000000 75.576 -138.0735
11800.000000 76.126 -136.9176
12060.000000 78.521 -136.5078
12200.000000 80.026 -140.9835
12410.000000 81.897 -157.8156
12500.000000 82.055 -168.5294
12650.000000 81.186 174.2980
12800.000000 79.301 163.7204
13150.000000 74.992 158.7587
13200.000000 74.402 159.1416
13400.000000 72.550 163.4242
13600.000000 71.072 168.7168
13800.000000 69.946 174.7056
14000.000000 69.034 -177.6409
14300.000000 68.089 -165.5945
14500.000000 67.680 -158.9671
14750.000000 67.396 -150.6165
15000.000000 67.452 -143.1642
15250.000000 67.887 -134.4016
15500.000000 68.357 -129.0281
15750.000000 69.349 -127.1471
16000.000000 70.369 -127.8012
16250.000000 71.386 -133.8177
16500.000000 71.308 -146.9976
16750.000000 69.720 -156.8123
17000.000000 67.538 -159.6535
17250.000000 65.543 -159.6026
17500.000000 63.547 -157.2043
17750.000000 62.012 -149.6511
18000.000000 60.359 -142.9602
18250.000000 58.919 -136.7761
18500.000000 57.503 -134.2015
18750.000000 56.318 -124.4890
19000.000000 54.479 -114.2274
19250.000000 52.445 -108.9399
19500.000000 50.917 -97.4718
19750.000000 49.889 -83.4977
20000.000000 48.550 -56.2216
20300.000000 45.639 -55.3551
20600.000000 44.529 -52.0392
20900.000000 43.244 -38.3321
21200.000000 39.049 -32.0396
21400.000000 37.377 -38.2381
21800.000000 14.510 32.5947
22000.000000 30.709 -25.9897
22400.000000 23.860 -79.0005
22700.000000 13.075 -83.3857
23000.000000 9.213 -89.3730
23300.000000 14.180 -138.5391
23600.000000 23.777 -10.1914

