* Measurement data measured by REW V5.20.13
* Source: Microphone (USB Sound Device        ), MICROPHONE (Master Volume), R, volume: 0,250
* Format: 256k Log Swept Sine, 1 sweep at -12,0 dBFS with no timing reference
* Dated: 17:25:17 21-07-2024
* REW Settings:
*  C-weighting compensation: Off
*  Target level: 75.0 dB
* Note: ; 
* Measurement: MiM DM 2.5 300+300 Hana L
* Smoothing: None
* Frequency Step: 1/48 octave
* Start Frequency: 1.000 Hz
*
* Freq(Hz) SPL(dB) Phase(degrees)
1.000000 84.226 122.3804
1.015000 84.039 121.5095
1.030000 83.844 120.6364
1.044000 83.654 119.8194
1.060000 83.428 118.8829
1.075000 83.207 118.0021
1.090000 82.976 117.1183
1.106000 82.719 116.1331
1.120000 82.486 115.0255
1.138000 82.178 113.2532
1.150000 81.967 111.8859
1.172000 81.568 109.0717
1.180000 81.419 107.9700
1.206000 80.921 104.2007
1.220000 80.644 102.1057
1.241000 80.218 98.9676
1.250000 80.032 97.6483
1.265000 79.716 95.5163
1.280000 79.393 93.5031
1.315000 78.616 89.4972
1.320000 78.502 89.0261
1.340000 78.039 87.4552
1.360000 77.566 86.4585
1.380000 77.083 86.1326
1.400000 76.589 86.5742
1.430000 75.829 88.8876
1.450000 75.310 91.6716
1.475000 74.638 96.7895
1.500000 73.856 104.3454
1.525000 72.967 114.1434
1.550000 71.997 125.8029
1.575000 70.972 138.9427
1.600000 69.918 153.1821
1.625000 68.861 168.1400
1.650000 67.826 -176.5643
1.675000 66.841 -161.3118
1.700000 65.929 -146.4834
1.725000 65.119 -132.4600
1.750000 64.435 -119.6225
1.775000 63.903 -108.3517
1.800000 63.549 -99.0287
1.825000 63.400 -92.0341
1.850000 63.486 -87.4570
1.875000 63.814 -84.6819
1.900000 64.351 -83.4821
1.925000 65.067 -83.6548
1.950000 65.929 -84.9974
1.975000 66.906 -87.3073
2.000000 67.963 -90.3816
2.030000 69.295 -94.7946
2.060000 70.643 -99.6664
2.090000 71.950 -104.6468
2.120000 73.163 -109.3855
2.140000 73.890 -112.2375
2.180000 75.078 -116.7371
2.200000 75.507 -118.1830
2.240000 76.160 -120.5094
2.270000 76.535 -122.1525
2.300000 76.823 -123.7158
2.330000 77.036 -125.2060
2.360000 77.185 -126.6297
2.400000 77.303 -128.4362
2.430000 77.347 -129.7307
2.470000 77.365 -131.3892
2.500000 77.364 -132.5909
2.540000 77.364 -134.1497
2.580000 77.382 -135.6804
2.620000 77.367 -137.2390
2.650000 77.325 -138.4106
2.690000 77.232 -139.9399
2.720000 77.137 -141.0374
2.760000 76.978 -142.3983
2.800000 76.786 -143.6005
2.850000 76.505 -144.8110
2.900000 76.186 -145.6140
2.950000 75.825 -145.9586
3.000000 75.357 -146.0938
3.040000 74.918 -146.0423
3.070000 74.565 -145.8769
3.110000 74.079 -145.4459
3.150000 73.595 -144.7272
3.200000 73.025 -143.3458
3.250000 72.533 -141.3337
3.300000 72.160 -138.5880
3.350000 71.867 -134.6649
3.400000 71.617 -129.5884
3.450000 71.419 -123.7819
3.500000 71.284 -117.6686
3.550000 71.222 -111.6719
3.600000 71.242 -106.2153
3.650000 71.355 -101.7221
3.700000 71.592 -98.3156
3.750000 71.985 -95.4643
3.820000 72.713 -92.2783
3.870000 73.297 -90.5189
3.950000 74.217 -88.4778
4.000000 74.711 -87.6178
4.060000 75.169 -87.0120
4.120000 75.568 -87.1547
4.180000 75.921 -87.9052
4.250000 76.275 -89.2726
4.310000 76.527 -90.6294
4.370000 76.729 -91.9378
4.440000 76.898 -93.3080
4.500000 76.982 -94.6554
4.550000 77.012 -95.8627
4.620000 77.004 -97.5794
4.680000 76.956 -98.9805
4.750000 76.862 -100.4096
4.820000 76.719 -101.6404
4.870000 76.576 -102.4982
4.940000 76.334 -103.5935
5.000000 76.100 -104.3633
5.080000 75.772 -105.0282
5.150000 75.487 -105.1647
5.220000 75.161 -104.8941
5.300000 74.756 -104.1741
5.380000 74.365 -103.1008
5.450000 74.073 -101.9415
5.520000 73.859 -100.6006
5.600000 73.681 -98.5290
5.700000 73.539 -95.4961
5.800000 73.490 -92.6641
5.900000 73.541 -90.6821
6.000000 73.731 -89.2440
6.080000 73.943 -88.4481
6.150000 74.134 -88.0630
6.220000 74.301 -88.0122
6.300000 74.468 -88.4458
6.400000 74.678 -89.6581
6.500000 74.861 -91.3434
6.600000 74.986 -93.2123
6.700000 75.046 -95.3648
6.800000 75.055 -97.8224
6.900000 75.023 -100.3302
7.000000 74.953 -102.6797
7.100000 74.830 -105.0364
7.200000 74.673 -107.3190
7.300000 74.509 -109.3632
7.400000 74.342 -111.0730
7.500000 74.155 -112.5341
7.620000 73.948 -113.9703
7.750000 73.802 -115.1078
7.880000 73.714 -115.7154
8.000000 73.698 -116.0964
8.120000 73.766 -116.5533
8.250000 73.937 -116.9769
8.380000 74.166 -117.5306
8.500000 74.402 -118.3556
8.620000 74.681 -119.4210
8.750000 74.989 -120.7451
8.850000 75.205 -121.8532
9.000000 75.517 -123.7379
9.120000 75.744 -125.2495
9.250000 75.955 -126.7643
9.380000 76.135 -128.2251
9.500000 76.283 -129.4131
9.620000 76.415 -130.3784
9.750000 76.539 -131.2230
9.880000 76.661 -131.8706
10.000000 76.777 -132.2694
10.150000 76.923 -132.5340
10.300000 77.081 -132.6941
10.440000 77.243 -132.7282
10.600000 77.434 -132.7218
10.750000 77.613 -132.7620
10.900000 77.793 -132.8132
11.060000 77.967 -132.8997
11.200000 78.107 -133.0084
11.380000 78.267 -133.1305
11.500000 78.357 -133.1916
11.720000 78.501 -133.2549
11.800000 78.547 -133.2512
12.060000 78.677 -133.1718
12.200000 78.740 -133.1150
12.410000 78.824 -133.0221
12.500000 78.856 -133.0024
12.650000 78.904 -132.9910
12.800000 78.944 -133.0064
13.150000 78.993 -133.1567
13.200000 78.996 -133.1815
13.400000 78.996 -133.2875
13.600000 78.986 -133.3904
13.800000 78.970 -133.4758
14.000000 78.958 -133.5960
14.300000 78.950 -133.8816
14.500000 78.952 -134.2176
14.750000 78.953 -134.8188
15.000000 78.948 -135.6175
15.250000 78.929 -136.5404
15.500000 78.903 -137.4952
15.750000 78.876 -138.4336
16.000000 78.861 -139.3082
16.250000 78.871 -140.1596
16.500000 78.905 -141.0160
16.750000 78.963 -141.9286
17.000000 79.033 -142.8958
17.250000 79.109 -143.8877
17.500000 79.184 -144.8580
17.750000 79.258 -145.7336
18.000000 79.333 -146.4968
18.250000 79.413 -147.1301
18.500000 79.501 -147.6635
18.750000 79.593 -148.1215
19.000000 79.687 -148.5264
19.250000 79.776 -148.8882
19.500000 79.859 -149.1983
19.750000 79.933 -149.4519
20.000000 79.999 -149.6452
20.299999 80.071 -149.8213
20.600000 80.132 -149.9652
20.900000 80.182 -150.1063
21.200001 80.217 -150.2562
21.400000 80.232 -150.3533
21.799999 80.243 -150.5313
22.000000 80.244 -150.6167
22.400000 80.242 -150.8163
22.700001 80.240 -151.0384
23.000000 80.234 -151.3528
23.299999 80.222 -151.7474
23.600000 80.203 -152.1921
24.000000 80.176 -152.8161
24.299999 80.161 -153.2939
24.700001 80.155 -153.9634
25.000000 80.160 -154.5060
25.400000 80.177 -155.2737
25.799999 80.200 -156.0366
26.200001 80.231 -156.7379
26.500000 80.262 -157.2143
26.900000 80.313 -157.7952
27.200001 80.354 -158.1973
27.600000 80.409 -158.6826
28.000000 80.461 -159.0929
28.500000 80.519 -159.5009
29.000000 80.568 -159.8308
29.500000 80.603 -160.1045
30.000000 80.624 -160.3239
30.400000 80.636 -160.4871
30.700001 80.642 -160.6288
31.100000 80.646 -160.8659
31.500000 80.640 -161.1497
32.000000 80.623 -161.5244
32.500000 80.607 -161.8987
33.000000 80.600 -162.3121
33.500000 80.601 -162.7970
34.000000 80.605 -163.3239
34.500000 80.612 -163.8400
35.000000 80.625 -164.3238
35.500000 80.644 -164.7735
36.000000 80.667 -165.1849
36.500000 80.691 -165.5574
37.000000 80.714 -165.8964
37.500000 80.732 -166.2002
38.200001 80.750 -166.5640
38.700001 80.759 -166.8049
39.500000 80.763 -167.2034
40.000000 80.760 -167.4521
40.599998 80.756 -167.7619
41.200001 80.752 -168.1098
41.799999 80.746 -168.4698
42.500000 80.742 -168.8734
43.099998 80.746 -169.2371
43.700001 80.748 -169.6092
44.400002 80.750 -169.9979
45.000000 80.755 -170.3042
45.500000 80.759 -170.5599
46.200001 80.761 -170.9028
46.799999 80.762 -171.1908
47.500000 80.757 -171.5297
48.200001 80.749 -171.7975
48.700001 80.753 -171.9661
49.400002 80.770 -172.3192
50.000000 80.770 -172.7176
50.799999 80.747 -173.1121
51.500000 80.741 -173.3144
52.200001 80.746 -173.5712
53.000000 80.741 -173.8937
53.799999 80.734 -174.1490
54.500000 80.732 -174.4224
55.200001 80.717 -174.7228
56.000000 80.697 -174.9744
57.000000 80.694 -175.3486
58.000000 80.672 -175.7974
59.000000 80.657 -176.0810
60.000000 80.651 -176.4309
60.799999 80.630 -176.6614
61.500000 80.614 -176.7647
62.200001 80.607 -176.8593
63.000000 80.599 -177.0177
64.000000 80.580 -177.2245
65.000000 80.563 -177.3713
66.000000 80.564 -177.4818
67.000000 80.588 -177.6912
68.000000 80.601 -178.0452
69.000000 80.599 -178.3323
70.000000 80.605 -178.5846
71.000000 80.604 -178.9594
72.000000 80.572 -179.2787
73.000000 80.552 -179.4311
74.000000 80.546 -179.7067
75.000000 80.522 -179.9782
76.199997 80.504 179.7815
77.500000 80.477 179.4969
78.800003 80.449 179.3060
80.000000 80.431 179.2290
81.199997 80.446 179.0239
82.500000 80.428 178.6390
83.800003 80.412 178.4770
85.000000 80.407 178.3130
86.199997 80.402 178.1463
87.500000 80.382 177.9439
88.500000 80.366 177.8985
90.000000 80.351 177.7055
91.199997 80.334 177.7337
92.500000 80.362 177.6006
93.800003 80.361 177.3339
95.000000 80.368 177.1352
96.199997 80.370 176.8493
97.500000 80.360 176.5285
98.800003 80.348 176.3272
100.000000 80.350 176.0526
101.500000 80.316 175.7750
103.000000 80.306 175.5734
104.400002 80.284 175.3226
106.000000 80.260 175.1036
107.500000 80.249 174.8110
109.000000 80.212 174.5798
110.599998 80.191 174.4138
112.000000 80.171 174.1967
113.800003 80.142 174.0237
115.000000 80.125 173.8821
117.199997 80.100 173.5765
118.000000 80.083 173.4818
120.599998 80.040 173.2585
122.000000 80.012 173.1481
124.099998 79.987 172.9805
125.000000 79.972 172.9361
126.500000 79.948 172.7817
128.000000 79.911 172.7336
131.500000 79.852 172.6853
132.000000 79.847 172.6688
134.000000 79.829 172.7041
136.000000 79.809 172.7330
138.000000 79.827 172.7270
140.000000 79.824 172.6469
143.000000 79.830 172.4448
145.000000 79.818 172.1853
147.500000 79.803 171.9541
150.000000 79.792 171.6796
152.500000 79.776 171.4523
155.000000 79.755 171.2260
157.500000 79.723 171.0371
160.000000 79.689 170.8634
162.500000 79.654 170.7330
165.000000 79.624 170.5740
167.500000 79.598 170.4886
170.000000 79.574 170.4000
172.500000 79.559 170.4624
175.000000 79.549 170.4140
177.500000 79.558 170.2812
180.000000 79.542 170.0432
182.500000 79.534 169.9021
185.000000 79.512 169.6559
187.500000 79.484 169.5652
190.000000 79.461 169.3920
192.500000 79.432 169.2509
195.000000 79.408 169.1315
197.500000 79.376 169.0301
200.000000 79.355 168.9315
203.000000 79.326 168.8735
206.000000 79.305 168.7226
209.000000 79.275 168.6187
212.000000 79.253 168.5212
214.000000 79.240 168.4502
218.000000 79.199 168.3288
220.000000 79.181 168.2638
224.000000 79.144 168.1021
227.000000 79.121 168.0599
230.000000 79.092 168.0392
233.000000 79.068 168.0145
236.000000 79.044 167.9421
240.000000 79.012 167.8853
243.000000 79.002 167.9016
247.000000 78.975 167.7672
250.000000 78.962 167.6622
254.000000 78.933 167.6787
258.000000 78.901 167.5471
262.000000 78.872 167.5109
265.000000 78.854 167.4427
269.000000 78.831 167.3224
272.000000 78.813 167.3046
276.000000 78.780 167.1799
280.000000 78.749 167.1358
285.000000 78.715 167.0451
290.000000 78.684 166.9799
295.000000 78.646 166.9672
300.000000 78.606 166.8995
304.000000 78.587 166.9057
307.000000 78.566 166.8712
311.000000 78.547 166.7704
315.000000 78.511 166.7954
320.000000 78.476 166.7397
325.000000 78.444 166.7311
330.000000 78.417 166.7238
335.000000 78.379 166.7283
340.000000 78.347 166.6916
345.000000 78.329 166.6588
350.000000 78.280 166.7333
355.000000 78.252 166.6720
360.000000 78.221 166.7457
365.000000 78.196 166.8019
370.000000 78.170 166.7250
375.000000 78.137 166.7845
382.000000 78.100 166.7840
387.000000 78.056 166.8220
395.000000 78.018 166.8174
400.000000 77.996 166.9446
406.000000 77.952 166.9638
412.000000 77.938 167.0006
418.000000 77.888 167.0920
425.000000 77.864 167.1376
431.000000 77.830 167.1831
437.000000 77.792 167.3143
444.000000 77.763 167.3525
450.000000 77.736 167.3912
455.000000 77.700 167.5169
462.000000 77.661 167.5453
468.000000 77.635 167.7420
475.000000 77.601 167.8015
482.000000 77.572 167.9452
487.000000 77.555 168.0123
494.000000 77.521 168.1812
500.000000 77.488 168.2436
508.000000 77.447 168.4389
515.000000 77.417 168.6000
522.000000 77.396 168.7623
530.000000 77.370 168.8199
538.000000 77.333 168.9936
545.000000 77.305 169.2027
552.000000 77.276 169.4010
560.000000 77.247 169.6425
570.000000 77.214 169.8409
580.000000 77.178 170.1645
590.000000 77.152 170.4420
600.000000 77.112 170.7156
608.000000 77.086 171.0181
615.000000 77.058 171.1873
622.000000 77.040 171.3085
630.000000 77.016 171.7180
640.000000 77.004 172.0140
650.000000 76.969 172.3101
660.000000 76.955 172.6609
670.000000 76.921 173.0389
680.000000 76.906 173.2485
690.000000 76.881 173.6991
700.000000 76.861 174.1046
710.000000 76.854 174.4954
720.000000 76.833 174.8426
730.000000 76.837 175.2167
740.000000 76.838 175.5924
750.000000 76.832 175.9483
762.000000 76.814 176.5688
775.000000 76.809 177.2268
788.000000 76.838 177.8138
800.000000 76.842 178.3195
812.000000 76.835 178.7973
825.000000 76.856 179.3138
838.000000 76.880 179.9698
850.000000 76.909 -179.4293
862.000000 76.935 -178.9599
875.000000 76.988 -178.2947
885.000000 77.031 -177.8485
900.000000 77.084 -177.2899
912.000000 77.137 -176.7285
925.000000 77.204 -176.3452
938.000000 77.284 -175.8023
950.000000 77.331 -175.4826
962.000000 77.402 -175.0493
975.000000 77.466 -174.6950
988.000000 77.547 -174.3754
1000.000000 77.624 -174.3023
1015.000000 77.710 -173.6849
1030.000000 77.802 -173.4195
1044.000000 77.879 -173.1342
1060.000000 77.970 -172.8568
1075.000000 78.086 -172.6365
1090.000000 78.165 -172.5391
1106.000000 78.271 -172.2823
1120.000000 78.349 -172.1672
1138.000000 78.461 -172.1508
1150.000000 78.539 -172.1530
1172.000000 78.680 -172.1095
1180.000000 78.713 -172.0856
1206.000000 78.855 -172.1333
1220.000000 78.928 -172.2233
1241.000000 79.037 -172.3871
1250.000000 79.088 -172.3752
1265.000000 79.150 -172.4473
1280.000000 79.228 -172.5450
1315.000000 79.387 -172.8187
1320.000000 79.407 -172.8483
1340.000000 79.493 -173.0026
1360.000000 79.576 -173.1709
1380.000000 79.656 -173.3044
1400.000000 79.725 -173.4706
1430.000000 79.847 -173.8188
1450.000000 79.923 -174.0470
1475.000000 80.010 -174.2206
1500.000000 80.086 -174.5371
1525.000000 80.186 -174.7721
1550.000000 80.280 -175.0603
1575.000000 80.363 -175.3859
1600.000000 80.451 -175.7404
1625.000000 80.532 -175.9665
1650.000000 80.615 -176.4182
1675.000000 80.696 -176.6480
1700.000000 80.768 -177.0630
1725.000000 80.841 -177.4611
1750.000000 80.932 -177.8516
1775.000000 80.995 -178.2896
1800.000000 81.074 -178.6624
1825.000000 81.148 -179.2393
1850.000000 81.204 -179.6646
1875.000000 81.277 179.8802
1900.000000 81.346 179.2948
1925.000000 81.393 178.7063
1950.000000 81.461 178.2106
1975.000000 81.484 177.4839
2000.000000 81.500 176.9951
2030.000000 81.610 176.2278
2060.000000 81.645 175.2318
2090.000000 81.689 174.5385
2120.000000 81.681 174.3893
2140.000000 81.730 172.9139
2180.000000 81.459 172.6661
2200.000000 81.472 173.3034
2240.000000 81.455 174.3568
2270.000000 81.385 174.0713
2300.000000 81.488 173.8954
2330.000000 81.524 173.7404
2360.000000 81.634 173.4854
2400.000000 81.758 172.8196
2430.000000 81.826 171.9499
2470.000000 81.875 170.8914
2500.000000 81.881 170.1498
2540.000000 81.880 169.4202
2580.000000 81.891 168.7930
2620.000000 81.930 168.2174
2650.000000 81.957 167.4057
2690.000000 81.974 166.5325
2720.000000 81.988 165.7772
2760.000000 81.963 164.8357
2800.000000 81.932 163.9869
2850.000000 81.885 162.9214
2900.000000 81.825 161.9370
2950.000000 81.743 161.1991
3000.000000 81.680 160.5483
3040.000000 81.594 159.9332
3070.000000 81.525 159.5712
3110.000000 81.462 159.1344
3150.000000 81.389 158.7295
3200.000000 81.301 158.3181
3250.000000 81.223 157.9843
3300.000000 81.125 157.6434
3350.000000 81.052 157.3244
3400.000000 80.977 157.0631
3450.000000 80.885 156.7628
3500.000000 80.775 156.3744
3550.000000 80.643 156.2135
3600.000000 80.501 156.0849
3650.000000 80.367 156.3620
3700.000000 80.238 156.6860
3750.000000 80.151 157.3517
3820.000000 80.027 158.5139
3870.000000 80.020 159.3998
3950.000000 80.055 160.4684
4000.000000 80.095 161.1337
4060.000000 80.162 161.2832
4120.000000 80.211 161.5520
4180.000000 80.310 161.5086
4250.000000 80.345 161.6764
4310.000000 80.368 161.5101
4370.000000 80.414 161.5520
4440.000000 80.444 161.3369
4500.000000 80.460 161.4192
4550.000000 80.487 161.1893
4620.000000 80.510 161.0447
4680.000000 80.510 160.8574
4750.000000 80.499 160.5692
4820.000000 80.517 160.2931
4870.000000 80.513 160.1838
4940.000000 80.502 159.7029
5000.000000 80.525 159.4684
5080.000000 80.450 159.1908
5150.000000 80.387 158.7231
5220.000000 80.290 158.3452
5300.000000 80.226 158.0722
5380.000000 80.087 157.9298
5450.000000 79.958 158.0511
5520.000000 79.819 158.1391
5600.000000 79.700 158.5446
5700.000000 79.550 159.3571
5800.000000 79.416 160.3379
5900.000000 79.337 161.1708
6000.000000 79.256 162.2703
6080.000000 79.197 162.9232
6150.000000 79.118 163.5548
6220.000000 79.059 164.2787
6300.000000 79.010 165.2354
6400.000000 78.960 166.5382
6500.000000 78.952 168.0352
6600.000000 78.968 169.5461
6700.000000 79.027 170.9474
6800.000000 79.120 172.4220
6900.000000 79.265 173.8088
7000.000000 79.445 175.2061
7100.000000 79.678 176.1625
7200.000000 79.974 177.1631
7300.000000 80.319 177.3112
7400.000000 80.678 177.2175
7500.000000 81.056 176.3110
7620.000000 81.502 174.4092
7750.000000 81.917 171.1297
7880.000000 82.230 166.4955
8000.000000 82.334 161.2679
8120.000000 82.169 155.8103
8250.000000 81.715 149.8968
8380.000000 81.022 145.0660
8500.000000 80.218 141.8886
8620.000000 79.335 139.8771
8750.000000 78.357 139.4765
8850.000000 77.616 139.8708
9000.000000 76.661 141.9919
9120.000000 75.961 144.2725
9250.000000 75.400 147.1334
9380.000000 74.843 150.2999
9500.000000 74.413 152.9215
9620.000000 73.947 155.6336
9750.000000 73.518 158.7239
9880.000000 73.103 162.5568
10000.000000 72.873 166.2077
10150.000000 72.535 170.8185
10300.000000 72.207 175.5029
10440.000000 72.025 -179.8120
10600.000000 71.907 -174.2797
10750.000000 71.852 -168.5294
10900.000000 72.036 -163.2059
11060.000000 72.199 -157.2055
11200.000000 72.586 -152.3831
11380.000000 73.112 -146.7521
11500.000000 73.513 -143.3423
11720.000000 74.699 -137.2592
11800.000000 75.130 -135.5663
12060.000000 77.176 -132.4113
12200.000000 78.467 -133.5828
12410.000000 80.599 -142.2939
12500.000000 81.346 -149.4308
12650.000000 81.794 -165.0850
12800.000000 80.961 179.3980
13150.000000 76.935 163.5235
13200.000000 76.426 162.9285
13400.000000 74.391 164.2755
13600.000000 72.767 167.8510
13800.000000 71.426 173.1429
14000.000000 70.472 178.5542
14300.000000 69.254 -171.3622
14500.000000 68.670 -165.0486
14750.000000 68.390 -155.7820
15000.000000 68.306 -148.1937
15250.000000 68.540 -141.2547
15500.000000 69.265 -134.2649
15750.000000 70.302 -132.1993
16000.000000 71.757 -132.3356
16250.000000 72.938 -141.1440
16500.000000 73.036 -158.3324
16750.000000 71.310 -174.3267
17000.000000 68.422 178.3852
17250.000000 65.841 177.7112
17500.000000 63.219 -178.0960
17750.000000 60.832 -171.4337
18000.000000 58.789 -162.0295
18250.000000 56.838 -155.4555
18500.000000 54.665 -146.6527
18750.000000 53.572 -138.7540
19000.000000 50.899 -131.8229
19250.000000 50.268 -121.1965
19500.000000 49.224 -104.5262
19750.000000 46.135 -93.7051
20000.000000 45.788 -87.5417
20300.000000 43.038 -53.9775
20600.000000 42.714 -26.5812
20900.000000 37.527 -28.3106
21200.000000 37.596 -41.6258
21400.000000 38.822 -16.4355
21800.000000 31.326 -29.6566
22000.000000 19.771 83.1938
22400.000000 12.390 -162.5586
22700.000000 7.968 -60.3359
23000.000000 14.451 54.5586
23300.000000 15.409 140.6250
23600.000000 22.713 71.8516

