* Measurement data measured by REW V5.20.13
* Source: Microphone (USB Sound Device        ), MICROPHONE (Master Volume), R, volume: 0,250
* Format: 256k Log Swept Sine, 1 sweep at -12,0 dBFS with no timing reference
* Dated: 10:25:50 06-01-2024
* REW Settings:
*  C-weighting compensation: Off
*  Target level: 75.0 dB
* Note: ; 
* Measurement: Moondrop KXXS R
* Smoothing: None
* Frequency Step: 1/48 octave
* Start Frequency: 1.000 Hz
*
* Freq(Hz) SPL(dB) Phase(degrees)
1.000000 89.090 75.2983
1.015000 88.811 74.9216
1.030000 88.532 74.5268
1.044000 88.271 74.1406
1.060000 87.973 73.6771
1.075000 87.695 73.2196
1.090000 87.418 72.7386
1.106000 87.125 72.2113
1.120000 86.876 71.8091
1.138000 86.564 71.3791
1.150000 86.360 71.1369
1.172000 85.993 70.7617
1.180000 85.861 70.6410
1.206000 85.435 70.2768
1.220000 85.204 70.0816
1.241000 84.855 69.7627
1.250000 84.704 69.6090
1.265000 84.447 69.3203
1.280000 84.185 68.9800
1.315000 83.542 67.9152
1.320000 83.446 67.7254
1.340000 83.050 66.8534
1.360000 82.632 65.7787
1.380000 82.188 64.4718
1.400000 81.716 62.9031
1.430000 80.948 59.9946
1.450000 80.391 57.6421
1.475000 79.630 54.1824
1.500000 78.717 50.1168
1.525000 77.662 45.4997
1.550000 76.494 40.3970
1.575000 75.245 34.8741
1.600000 73.946 28.9970
1.625000 72.628 22.8313
1.650000 71.322 16.4427
1.675000 70.059 9.8968
1.700000 68.870 3.2594
1.725000 67.786 -3.4037
1.750000 66.838 -10.0270
1.775000 66.057 -16.5447
1.800000 65.474 -22.8911
1.825000 65.119 -29.0005
1.850000 65.021 -34.9998
1.875000 65.167 -41.2789
1.900000 65.526 -47.7852
1.925000 66.068 -54.4469
1.950000 66.761 -61.1919
1.975000 67.574 -67.9481
2.000000 68.476 -74.6434
2.030000 69.632 -82.4959
2.060000 70.816 -90.0326
2.090000 71.976 -97.1290
2.120000 73.058 -103.6604
2.140000 73.708 -107.6394
2.180000 74.769 -114.5306
2.200000 75.148 -117.3695
2.240000 75.739 -121.8547
2.270000 76.096 -124.3083
2.300000 76.389 -126.0932
2.330000 76.624 -127.3099
2.360000 76.810 -128.0589
2.400000 76.995 -128.5036
2.430000 77.097 -128.5519
2.470000 77.198 -128.4270
2.500000 77.259 -128.3217
2.540000 77.333 -128.3566
2.580000 77.410 -128.7495
2.620000 77.434 -129.1242
2.650000 77.414 -129.3127
2.690000 77.347 -129.4280
2.720000 77.273 -129.4037
2.760000 77.155 -129.2111
2.800000 77.025 -128.8208
2.850000 76.867 -128.0308
2.900000 76.737 -126.8763
2.950000 76.652 -125.3017
3.000000 76.556 -123.1192
3.040000 76.469 -120.9995
3.070000 76.405 -119.2469
3.110000 76.327 -116.7602
3.150000 76.267 -114.1791
3.200000 76.231 -110.9481
3.250000 76.254 -107.8647
3.300000 76.356 -105.0908
3.350000 76.548 -102.4197
3.400000 76.818 -99.6900
3.450000 77.146 -96.9903
3.500000 77.511 -94.4093
3.550000 77.894 -92.0356
3.600000 78.274 -89.9579
3.650000 78.632 -88.2649
3.700000 78.969 -87.0177
3.750000 79.319 -86.1605
3.820000 79.820 -85.4886
3.870000 80.174 -85.2969
3.950000 80.708 -85.3078
4.000000 81.008 -85.4111
4.060000 81.324 -85.5771
4.120000 81.606 -85.9814
4.180000 81.858 -86.5928
4.250000 82.118 -87.4714
4.310000 82.312 -88.2833
4.370000 82.483 -89.0730
4.440000 82.649 -89.9355
4.500000 82.756 -90.7362
4.550000 82.825 -91.4301
4.620000 82.897 -92.4007
4.680000 82.941 -93.1930
4.750000 82.980 -94.0208
4.820000 83.004 -94.7365
4.870000 83.003 -95.2109
4.940000 82.986 -95.8177
5.000000 82.962 -96.2783
5.080000 82.928 -96.7963
5.150000 82.904 -97.1472
5.220000 82.874 -97.3739
5.300000 82.834 -97.5132
5.380000 82.798 -97.5794
5.450000 82.777 -97.6224
5.520000 82.773 -97.6809
5.600000 82.783 -97.6858
5.700000 82.815 -97.6505
5.800000 82.864 -97.6928
5.900000 82.928 -97.9286
6.000000 83.015 -98.3036
6.080000 83.094 -98.6969
6.150000 83.164 -99.1182
6.220000 83.229 -99.6190
6.300000 83.300 -100.3065
6.400000 83.388 -101.3265
6.500000 83.469 -102.4660
6.600000 83.536 -103.6623
6.700000 83.586 -104.9495
6.800000 83.624 -106.3233
6.900000 83.652 -107.7032
7.000000 83.671 -109.0220
7.100000 83.676 -110.3248
7.200000 83.673 -111.5975
7.300000 83.672 -112.8031
7.400000 83.675 -113.9161
7.500000 83.676 -114.9537
7.620000 83.686 -116.1209
7.750000 83.719 -117.3061
7.880000 83.771 -118.3823
8.000000 83.837 -119.3394
8.120000 83.920 -120.3175
8.250000 84.033 -121.3696
8.380000 84.159 -122.4445
8.500000 84.279 -123.4910
8.620000 84.408 -124.5817
8.750000 84.548 -125.7823
8.850000 84.651 -126.7082
9.000000 84.801 -128.1240
9.120000 84.915 -129.2273
9.250000 85.028 -130.3559
9.380000 85.132 -131.4363
9.500000 85.224 -132.3649
9.620000 85.312 -133.2101
9.750000 85.403 -134.0440
9.880000 85.493 -134.8037
10.000000 85.577 -135.4347
10.150000 85.681 -136.1363
10.300000 85.786 -136.7898
10.440000 85.887 -137.3511
10.600000 86.000 -137.9585
10.750000 86.103 -138.5191
10.900000 86.202 -139.0625
11.060000 86.298 -139.6312
11.200000 86.375 -140.1211
11.380000 86.462 -140.7216
11.500000 86.514 -141.0989
11.720000 86.597 -141.7509
11.800000 86.624 -141.9738
12.060000 86.701 -142.6591
12.200000 86.736 -143.0252
12.410000 86.781 -143.5712
12.500000 86.798 -143.8106
12.650000 86.822 -144.2142
12.800000 86.841 -144.6283
13.150000 86.861 -145.6504
13.200000 86.861 -145.7983
13.400000 86.856 -146.3964
13.600000 86.845 -146.9865
13.800000 86.829 -147.5574
14.000000 86.813 -148.1387
14.300000 86.794 -149.0454
14.500000 86.785 -149.6933
14.750000 86.777 -150.5652
15.000000 86.769 -151.5107
15.250000 86.761 -152.5311
15.500000 86.751 -153.5703
15.750000 86.740 -154.6005
16.000000 86.733 -155.5937
16.250000 86.734 -156.5526
16.500000 86.747 -157.4821
16.750000 86.769 -158.3943
17.000000 86.798 -159.2981
17.250000 86.833 -160.1889
17.500000 86.870 -161.0593
17.750000 86.906 -161.8883
18.000000 86.942 -162.6650
18.250000 86.978 -163.3770
18.500000 87.014 -164.0334
18.750000 87.049 -164.6413
19.000000 87.082 -165.2072
19.250000 87.112 -165.7355
19.500000 87.137 -166.2292
19.750000 87.158 -166.6908
20.000000 87.173 -167.1234
20.299999 87.185 -167.6146
20.600000 87.190 -168.0880
20.900000 87.187 -168.5565
21.200001 87.176 -169.0303
21.400000 87.163 -169.3455
21.799999 87.130 -169.9696
22.000000 87.111 -170.2826
22.400000 87.071 -170.9351
22.700001 87.041 -171.4584
23.000000 87.011 -172.0250
23.299999 86.979 -172.6371
23.600000 86.945 -173.2725
24.000000 86.901 -174.1276
24.299999 86.872 -174.7667
24.700001 86.842 -175.6141
25.000000 86.825 -176.2475
25.400000 86.809 -177.0863
25.799999 86.798 -177.8961
26.200001 86.792 -178.6545
26.500000 86.792 -179.1881
26.900000 86.795 -179.8618
27.200001 86.797 179.6570
27.600000 86.797 179.0506
28.000000 86.792 178.4966
28.500000 86.778 177.8874
29.000000 86.757 177.3348
29.500000 86.726 176.8090
30.000000 86.687 176.3099
30.400000 86.652 175.9175
30.700001 86.626 175.6142
31.100000 86.591 175.1740
31.500000 86.552 174.6869
32.000000 86.497 174.0512
32.500000 86.440 173.4261
33.000000 86.389 172.8200
33.500000 86.350 172.2020
34.000000 86.316 171.5626
34.500000 86.284 170.9251
35.000000 86.253 170.3195
35.500000 86.224 169.7573
36.000000 86.195 169.2411
36.500000 86.165 168.7684
37.000000 86.136 168.3326
37.500000 86.105 167.9232
38.200001 86.057 167.3540
38.700001 86.018 166.9392
39.500000 85.946 166.2777
40.000000 85.898 165.8780
40.599998 85.842 165.3981
41.200001 85.790 164.8990
41.799999 85.740 164.3764
42.500000 85.681 163.7645
43.099998 85.632 163.2632
43.700001 85.584 162.7966
44.400002 85.532 162.2780
45.000000 85.487 161.8294
45.500000 85.444 161.4665
46.200001 85.378 161.0357
46.799999 85.327 160.7222
47.500000 85.270 160.3222
48.200001 85.205 159.9056
48.700001 85.160 159.6369
49.400002 85.103 159.2598
50.000000 85.055 158.8727
50.799999 84.976 158.3587
51.500000 84.907 158.0038
52.200001 84.849 157.6621
53.000000 84.780 157.2212
53.799999 84.702 156.8091
54.500000 84.635 156.4974
55.200001 84.567 156.2034
56.000000 84.486 155.9517
57.000000 84.405 155.6685
58.000000 84.312 155.3102
59.000000 84.219 155.1379
60.000000 84.143 154.7612
60.799999 84.033 154.4458
61.500000 83.936 154.5046
62.200001 83.891 154.6319
63.000000 83.859 154.4355
64.000000 83.764 154.1564
65.000000 83.694 154.3504
66.000000 83.679 154.4885
67.000000 83.673 154.5676
68.000000 83.693 154.5071
69.000000 83.679 154.1813
70.000000 83.641 153.9158
71.000000 83.597 153.4357
72.000000 83.509 152.9948
73.000000 83.444 152.6212
74.000000 83.344 152.1477
75.000000 83.271 152.2012
76.199997 83.256 151.7916
77.500000 83.160 151.4872
78.800003 83.099 151.2494
80.000000 83.032 151.0551
81.199997 82.982 150.6770
82.500000 82.902 150.2386
83.800003 82.828 149.8617
85.000000 82.759 149.5684
86.199997 82.687 149.3612
87.500000 82.618 149.1475
88.500000 82.553 148.9450
90.000000 82.444 148.7779
91.199997 82.372 148.5967
92.500000 82.278 148.4777
93.800003 82.212 148.3715
95.000000 82.149 148.2076
96.199997 82.075 148.0147
97.500000 81.999 148.0158
98.800003 81.940 147.8402
100.000000 81.859 147.8239
101.500000 81.799 147.7961
103.000000 81.722 147.6559
104.400002 81.649 147.5732
106.000000 81.570 147.4271
107.500000 81.506 147.4319
109.000000 81.427 147.2361
110.599998 81.354 147.2316
112.000000 81.295 147.1908
113.800003 81.221 146.8661
115.000000 81.140 146.8713
117.199997 81.050 146.9093
118.000000 81.020 146.9434
120.599998 80.887 146.7932
122.000000 80.825 146.8083
124.099998 80.728 146.6724
125.000000 80.688 146.6953
126.500000 80.631 146.6413
128.000000 80.558 146.5627
131.500000 80.402 146.6967
132.000000 80.385 146.6897
134.000000 80.292 146.6544
136.000000 80.215 146.6868
138.000000 80.114 146.7428
140.000000 80.049 146.7643
143.000000 79.929 146.8268
145.000000 79.839 146.8886
147.500000 79.751 146.9328
150.000000 79.668 147.0235
152.500000 79.565 147.2101
155.000000 79.480 147.3152
157.500000 79.390 147.3908
160.000000 79.306 147.5440
162.500000 79.220 147.6467
165.000000 79.140 147.8138
167.500000 79.051 147.9867
170.000000 78.973 148.1418
172.500000 78.897 148.3181
175.000000 78.824 148.4799
177.500000 78.751 148.7144
180.000000 78.680 148.9507
182.500000 78.619 149.1147
185.000000 78.558 149.3708
187.500000 78.486 149.5876
190.000000 78.436 149.7303
192.500000 78.381 149.8441
195.000000 78.318 149.9892
197.500000 78.253 150.1481
200.000000 78.197 150.3059
203.000000 78.119 150.4727
206.000000 78.044 150.7438
209.000000 77.978 150.9340
212.000000 77.902 151.0995
214.000000 77.862 151.3220
218.000000 77.770 151.6237
220.000000 77.732 151.7678
224.000000 77.649 152.1218
227.000000 77.579 152.3437
230.000000 77.524 152.5278
233.000000 77.466 152.7773
236.000000 77.405 153.0640
240.000000 77.336 153.3947
243.000000 77.283 153.6389
247.000000 77.205 153.9929
250.000000 77.145 154.2464
254.000000 77.076 154.5563
258.000000 77.021 154.9809
262.000000 76.965 155.2470
265.000000 76.908 155.5214
269.000000 76.853 155.8119
272.000000 76.804 155.9925
276.000000 76.746 156.4276
280.000000 76.693 156.8349
285.000000 76.610 157.2457
290.000000 76.545 157.6500
295.000000 76.486 158.1378
300.000000 76.428 158.5449
304.000000 76.373 158.7996
307.000000 76.336 159.1408
311.000000 76.300 159.4604
315.000000 76.247 159.7645
320.000000 76.193 160.2018
325.000000 76.156 160.6249
330.000000 76.105 161.0389
335.000000 76.053 161.4751
340.000000 75.989 161.8621
345.000000 75.948 162.2215
350.000000 75.912 162.7556
355.000000 75.857 163.0861
360.000000 75.831 163.4816
365.000000 75.784 163.8311
370.000000 75.750 164.2621
375.000000 75.709 164.6042
382.000000 75.647 165.2239
387.000000 75.630 165.6167
395.000000 75.570 166.3362
400.000000 75.530 166.6628
406.000000 75.501 167.1202
412.000000 75.453 167.6470
418.000000 75.433 168.1226
425.000000 75.380 168.6082
431.000000 75.338 168.9714
437.000000 75.327 169.5885
444.000000 75.270 170.1090
450.000000 75.259 170.5383
455.000000 75.221 170.8209
462.000000 75.192 171.4344
468.000000 75.169 171.8127
475.000000 75.133 172.3694
482.000000 75.119 172.8812
487.000000 75.098 173.2415
494.000000 75.064 173.7908
500.000000 75.025 174.1970
508.000000 75.013 174.7414
515.000000 75.007 175.3878
522.000000 74.978 175.7189
530.000000 74.941 176.4058
538.000000 74.929 177.0058
545.000000 74.920 177.3417
552.000000 74.879 178.0095
560.000000 74.874 178.3900
570.000000 74.850 179.1821
580.000000 74.829 179.9008
590.000000 74.810 -179.3678
600.000000 74.778 -178.6261
608.000000 74.770 -178.1855
615.000000 74.784 -177.7355
622.000000 74.757 -177.1680
630.000000 74.742 -176.6842
640.000000 74.759 -175.8673
650.000000 74.748 -175.2692
660.000000 74.734 -174.5165
670.000000 74.735 -173.8786
680.000000 74.740 -173.1264
690.000000 74.740 -172.5409
700.000000 74.735 -171.8144
710.000000 74.731 -171.0297
720.000000 74.760 -170.3983
730.000000 74.762 -169.6595
740.000000 74.783 -169.0665
750.000000 74.794 -168.3342
762.000000 74.816 -167.5846
775.000000 74.838 -166.6854
788.000000 74.897 -165.8045
800.000000 74.919 -164.9543
812.000000 74.962 -164.1601
825.000000 75.019 -163.4037
838.000000 75.061 -162.6186
850.000000 75.130 -161.8941
862.000000 75.201 -161.2502
875.000000 75.278 -160.8923
885.000000 75.299 -160.7054
900.000000 75.242 -159.6489
912.000000 75.364 -158.6397
925.000000 75.480 -157.8678
938.000000 75.576 -157.6669
950.000000 75.645 -157.8093
962.000000 75.604 -157.9541
975.000000 75.479 -157.1662
988.000000 75.470 -155.5593
1000.000000 75.446 -153.3656
1015.000000 75.704 -152.9750
1030.000000 75.843 -152.1459
1044.000000 75.964 -151.3754
1060.000000 76.127 -150.7864
1075.000000 76.258 -150.3079
1090.000000 76.396 -149.9174
1106.000000 76.526 -149.2770
1120.000000 76.653 -149.1007
1138.000000 76.776 -148.7476
1150.000000 76.877 -148.4821
1172.000000 77.044 -148.1848
1180.000000 77.102 -148.1568
1206.000000 77.290 -147.8544
1220.000000 77.369 -147.6428
1241.000000 77.502 -147.6247
1250.000000 77.534 -147.5526
1265.000000 77.631 -147.3832
1280.000000 77.711 -147.4482
1315.000000 77.885 -147.2098
1320.000000 77.916 -147.1521
1340.000000 77.994 -147.1161
1360.000000 78.090 -147.0149
1380.000000 78.162 -146.9266
1400.000000 78.247 -146.8175
1430.000000 78.354 -146.8153
1450.000000 78.437 -146.5135
1475.000000 78.538 -146.3782
1500.000000 78.648 -146.2262
1525.000000 78.737 -146.0805
1550.000000 78.843 -145.9262
1575.000000 78.945 -146.0782
1600.000000 79.039 -146.1372
1625.000000 79.127 -145.7991
1650.000000 79.229 -145.7819
1675.000000 79.313 -145.7460
1700.000000 79.391 -145.6405
1725.000000 79.479 -145.6277
1750.000000 79.581 -145.5491
1775.000000 79.669 -145.6019
1800.000000 79.746 -145.6266
1825.000000 79.838 -145.6034
1850.000000 79.906 -145.7037
1875.000000 80.010 -145.6886
1900.000000 80.095 -145.6908
1925.000000 80.164 -145.7547
1950.000000 80.251 -145.8410
1975.000000 80.325 -145.8908
2000.000000 80.441 -147.0440
2030.000000 80.505 -146.1031
2060.000000 80.585 -146.2969
2090.000000 80.672 -146.4911
2120.000000 80.744 -146.6592
2140.000000 80.797 -146.7396
2180.000000 80.899 -147.0229
2200.000000 80.936 -147.0567
2240.000000 81.028 -147.1722
2270.000000 81.087 -147.1791
2300.000000 81.183 -147.0693
2330.000000 81.285 -146.8481
2360.000000 81.423 -146.9301
2400.000000 81.604 -147.3556
2430.000000 81.712 -147.9263
2470.000000 81.841 -148.6851
2500.000000 81.895 -149.2889
2540.000000 81.971 -149.8546
2580.000000 82.030 -150.4063
2620.000000 82.093 -150.7589
2650.000000 82.164 -150.9527
2690.000000 82.261 -151.4284
2720.000000 82.384 -151.8919
2760.000000 82.475 -152.5627
2800.000000 82.552 -153.4638
2850.000000 82.617 -154.6051
2900.000000 82.676 -155.5723
2950.000000 82.703 -156.5027
3000.000000 82.917 -159.2199
3040.000000 82.755 -158.0555
3070.000000 82.785 -158.6559
3110.000000 82.808 -159.2814
3150.000000 82.805 -160.0146
3200.000000 82.822 -160.8691
3250.000000 82.832 -161.6652
3300.000000 82.836 -162.4742
3350.000000 82.854 -163.2773
3400.000000 82.866 -164.0809
3450.000000 82.871 -164.8796
3500.000000 82.869 -165.9090
3550.000000 82.864 -166.8992
3600.000000 82.844 -167.8063
3650.000000 82.830 -168.9613
3700.000000 82.791 -169.9440
3750.000000 82.710 -170.9350
3820.000000 82.588 -172.2229
3870.000000 82.505 -173.0229
3950.000000 82.363 -174.2597
4000.000000 82.364 -176.1339
4060.000000 82.160 -175.6755
4120.000000 82.054 -176.5587
4180.000000 81.928 -177.2984
4250.000000 81.798 -178.3137
4310.000000 81.643 -179.0410
4370.000000 81.501 -179.8168
4440.000000 81.310 179.2526
4500.000000 81.132 178.6498
4550.000000 80.971 178.0698
4620.000000 80.747 177.4075
4680.000000 80.537 177.0176
4750.000000 80.270 176.4045
4820.000000 80.009 176.0665
4870.000000 79.812 176.1555
4940.000000 79.515 176.1932
5000.000000 79.323 176.8480
5080.000000 78.973 176.4926
5150.000000 78.688 176.9193
5220.000000 78.423 177.4439
5300.000000 78.122 178.2138
5380.000000 77.839 179.1781
5450.000000 77.564 -179.9232
5520.000000 77.366 -178.7950
5600.000000 77.074 -177.3825
5700.000000 76.818 -175.5479
5800.000000 76.497 -173.5534
5900.000000 76.267 -171.2661
6000.000000 76.232 -167.9965
6080.000000 76.020 -166.9500
6150.000000 75.927 -165.1694
6220.000000 75.839 -163.8095
6300.000000 75.782 -161.9484
6400.000000 75.770 -159.7180
6500.000000 75.696 -157.0295
6600.000000 75.700 -154.7087
6700.000000 75.753 -152.5053
6800.000000 75.857 -150.2386
6900.000000 75.986 -147.8199
7000.000000 76.292 -145.9471
7100.000000 76.495 -143.9659
7200.000000 76.815 -142.5562
7300.000000 77.165 -141.2095
7400.000000 77.635 -140.7484
7500.000000 78.128 -141.1608
7620.000000 78.774 -142.4994
7750.000000 79.458 -146.2422
7880.000000 79.969 -152.2774
8000.000000 80.134 -159.4205
8120.000000 79.945 -167.6603
8250.000000 79.177 -175.7943
8380.000000 78.085 178.0386
8500.000000 76.894 174.4652
8620.000000 75.699 172.8337
8750.000000 74.388 172.3125
8850.000000 73.481 173.5662
9000.000000 72.159 175.1398
9120.000000 71.161 178.4341
9250.000000 70.170 -178.2921
9380.000000 69.356 -174.5910
9500.000000 68.726 -171.1054
9620.000000 67.883 -166.5394
9750.000000 67.345 -161.2219
9880.000000 66.829 -156.4113
10000.000000 65.953 -151.5862
10150.000000 65.594 -144.8364
10300.000000 65.155 -139.2257
10440.000000 64.532 -131.8187
10600.000000 64.006 -124.9542
10750.000000 63.974 -116.7882
10900.000000 63.755 -109.6601
11060.000000 63.611 -100.5967
11200.000000 63.679 -91.2311
11380.000000 63.703 -78.1631
11500.000000 63.825 -69.5516
11720.000000 65.530 -53.8053
11800.000000 66.357 -48.4572
12060.000000 69.440 -39.9859
12200.000000 70.887 -39.4612
12410.000000 72.533 -39.7145
12500.000000 73.143 -40.0916
12650.000000 74.264 -39.7222
12800.000000 75.509 -39.5702
13150.000000 79.689 -46.2184
13200.000000 80.411 -49.0557
13400.000000 83.025 -71.5058
13600.000000 82.475 -104.7960
13800.000000 79.393 -123.1709
14000.000000 76.461 -127.7182
14300.000000 73.348 -125.4253
14500.000000 71.981 -121.6560
14750.000000 70.611 -115.1470
15000.000000 69.743 -109.4960
15250.000000 69.264 -103.1322
15500.000000 69.091 -98.0488
15750.000000 69.237 -94.0136
16000.000000 69.637 -92.1888
16250.000000 70.095 -94.4921
16500.000000 70.367 -99.3071
16750.000000 69.892 -107.4700
17000.000000 68.676 -114.6088
17250.000000 67.033 -118.9108
17500.000000 65.495 -120.1087
17750.000000 63.948 -116.0547
18000.000000 62.498 -114.4240
18250.000000 61.952 -115.3062
18500.000000 57.187 -98.7154
18750.000000 57.155 -92.0016
19000.000000 55.873 -89.3813
19250.000000 55.074 -80.8923
19500.000000 54.790 -71.1430
19750.000000 51.512 -75.3468
20000.000000 52.319 -65.5419
20300.000000 49.816 -40.1386
20600.000000 50.031 -39.3218
20900.000000 49.105 -23.3173
21200.000000 47.126 -19.4160
21400.000000 43.085 -62.7318
21800.000000 43.101 -28.3416
22000.000000 41.848 45.0156
22400.000000 35.215 93.7637
22700.000000 28.733 -32.8477
23000.000000 43.088 71.7930
23300.000000 39.304 109.2734
23600.000000 39.289 -38.2578

