* Measurement data measured by REW V5.20.13
* Source: Microphone (USB Sound Device        ), MICROPHONE (Master Volume), R, volume: 0,250
* Format: 256k Log Swept Sine, 1 sweep at -12,0 dBFS with no timing reference
* Dated: 12:40:37 19-03-2024
* REW Settings:
*  C-weighting compensation: Off
*  Target level: 75.0 dB
* Note: ; 
* Measurement: Oriveti OD200 Silver R
* Smoothing: None
* Frequency Step: 1/48 octave
* Start Frequency: 1.000 Hz
*
* Freq(Hz) SPL(dB) Phase(degrees)
1.000000 84.679 120.9371
1.015000 84.507 120.0521
1.030000 84.328 119.1667
1.044000 84.155 118.3401
1.060000 83.950 117.3950
1.075000 83.751 116.5086
1.090000 83.543 115.6218
1.106000 83.318 114.7063
1.120000 83.139 114.0970
1.138000 82.935 113.5860
1.150000 82.813 113.3905
1.172000 82.609 113.2716
1.180000 82.540 113.2893
1.206000 82.322 113.4925
1.220000 82.204 113.6516
1.241000 82.017 113.8841
1.250000 81.931 113.9626
1.265000 81.777 114.0397
1.280000 81.605 114.0217
1.315000 81.115 113.4289
1.320000 81.032 113.2638
1.340000 80.666 112.3548
1.360000 80.233 110.9908
1.380000 79.724 109.0957
1.400000 79.131 106.5931
1.430000 78.060 101.5336
1.450000 77.212 97.1790
1.475000 75.964 90.4501
1.500000 74.326 81.8735
1.525000 72.322 71.6011
1.550000 70.027 59.9115
1.575000 67.516 47.0831
1.600000 64.864 33.3946
1.625000 62.145 19.1245
1.650000 59.436 4.5514
1.675000 56.810 -10.0464
1.700000 54.342 -24.3903
1.725000 52.108 -38.2015
1.750000 50.183 -51.2018
1.775000 48.642 -63.1125
1.800000 47.558 -73.6551
1.825000 47.009 -82.5512
1.850000 47.058 -89.7884
1.875000 47.682 -95.9221
1.900000 48.804 -101.0840
1.925000 50.349 -105.3828
1.950000 52.240 -108.9268
1.975000 54.401 -111.8247
2.000000 56.756 -114.1850
2.030000 59.730 -116.4604
2.060000 62.743 -118.3054
2.090000 65.662 -119.9075
2.120000 68.355 -121.4542
2.140000 69.960 -122.5472
2.180000 72.539 -125.1315
2.200000 73.330 -126.7302
2.240000 73.422 -129.8550
2.270000 73.582 -131.9222
2.300000 73.802 -133.7883
2.330000 74.065 -135.4856
2.360000 74.355 -137.0464
2.400000 74.757 -138.9712
2.430000 75.047 -140.3393
2.470000 75.391 -142.1244
2.500000 75.593 -143.4758
2.540000 75.761 -145.3558
2.580000 75.805 -147.3812
2.620000 75.812 -149.4714
2.650000 75.787 -151.0505
2.690000 75.712 -153.1495
2.720000 75.624 -154.7041
2.760000 75.463 -156.7288
2.800000 75.251 -158.6739
2.850000 74.911 -160.9518
2.900000 74.485 -163.0100
2.950000 73.964 -164.9292
3.000000 73.310 -167.6646
3.040000 72.702 -170.2382
3.070000 72.207 -172.1767
3.110000 71.508 -174.5075
3.150000 70.779 -176.2459
3.200000 69.849 -177.0830
3.250000 68.929 -175.8341
3.300000 68.048 -171.8501
3.350000 67.045 -164.0551
3.400000 65.874 -152.8349
3.450000 64.654 -139.4228
3.500000 63.502 -125.0524
3.550000 62.537 -110.9570
3.600000 61.878 -98.3703
3.650000 61.644 -88.5255
3.700000 61.964 -81.8863
3.750000 62.838 -77.0671
3.820000 64.686 -72.7127
3.870000 66.230 -70.9128
3.950000 68.637 -69.4912
4.000000 69.847 -69.0569
4.060000 70.802 -68.7627
4.120000 71.476 -69.6366
4.180000 71.961 -71.4935
4.250000 72.344 -74.3888
4.310000 72.564 -77.0548
4.370000 72.729 -79.4847
4.440000 72.877 -81.8182
4.500000 72.910 -83.9171
4.550000 72.873 -85.6985
4.620000 72.733 -88.1097
4.680000 72.538 -89.9768
4.750000 72.237 -91.7629
4.820000 71.839 -93.2829
4.870000 71.478 -94.4006
4.940000 70.894 -95.7300
5.000000 70.346 -96.3947
5.080000 69.590 -96.1696
5.150000 68.932 -94.5273
5.220000 68.142 -91.3726
5.300000 67.156 -86.3936
5.380000 66.259 -80.5688
5.450000 65.694 -75.2863
5.520000 65.460 -70.1404
5.600000 65.593 -63.3100
5.700000 66.142 -54.2309
5.800000 66.838 -46.4802
5.900000 67.435 -41.9935
6.000000 68.102 -40.6063
6.080000 68.650 -40.9133
6.150000 69.073 -41.7288
6.220000 69.390 -42.6557
6.300000 69.612 -43.9633
6.400000 69.751 -46.4672
6.500000 69.750 -49.4251
6.600000 69.621 -52.2876
6.700000 69.354 -55.1886
6.800000 68.952 -58.2093
6.900000 68.439 -60.9791
7.000000 67.825 -63.2091
7.100000 67.063 -65.2090
7.200000 66.214 -66.7480
7.300000 65.362 -67.4388
7.400000 64.511 -66.8950
7.500000 63.596 -65.2322
7.620000 62.618 -62.5750
7.750000 61.968 -59.6563
7.880000 61.710 -55.9125
8.000000 61.692 -53.2648
8.120000 61.815 -53.0304
8.250000 62.181 -55.0478
8.380000 62.626 -58.6169
8.500000 62.973 -62.9786
8.620000 63.315 -68.6923
8.750000 63.672 -75.3734
8.850000 63.925 -80.3082
9.000000 64.279 -87.9759
9.120000 64.539 -93.7402
9.250000 64.794 -99.1371
9.380000 65.022 -103.9087
9.500000 65.224 -107.5691
9.620000 65.418 -110.3519
9.750000 65.617 -112.4837
9.880000 65.841 -113.9195
10.000000 66.085 -114.6028
10.150000 66.424 -114.6582
10.300000 66.811 -114.4691
10.440000 67.226 -114.0283
10.600000 67.720 -113.4264
10.750000 68.174 -113.0327
10.900000 68.624 -112.6902
11.060000 69.059 -112.3486
11.200000 69.402 -112.0872
11.380000 69.803 -111.6719
11.500000 70.041 -111.3086
11.720000 70.435 -110.5337
11.800000 70.571 -110.2162
12.060000 70.980 -109.1068
12.200000 71.183 -108.5699
12.410000 71.460 -107.8365
12.500000 71.563 -107.5700
12.650000 71.714 -107.1998
12.800000 71.837 -106.8566
13.150000 71.999 -106.0325
13.200000 72.013 -105.8876
13.400000 72.038 -105.2176
13.600000 72.052 -104.4494
13.800000 72.063 -103.5664
14.000000 72.086 -102.7771
14.300000 72.138 -101.8869
14.500000 72.171 -101.6704
14.750000 72.182 -101.7768
15.000000 72.149 -102.2566
15.250000 72.066 -102.8931
15.500000 71.962 -103.5541
15.750000 71.858 -104.1971
16.000000 71.791 -104.8532
16.250000 71.772 -105.6994
16.500000 71.800 -106.8075
16.750000 71.862 -108.2673
17.000000 71.933 -109.9615
17.250000 72.010 -111.7749
17.500000 72.087 -113.5468
17.750000 72.179 -115.1232
18.000000 72.293 -116.4874
18.250000 72.440 -117.6283
18.500000 72.618 -118.6301
18.750000 72.817 -119.5268
19.000000 73.026 -120.3491
19.250000 73.231 -121.0767
19.500000 73.427 -121.6801
19.750000 73.611 -122.1408
20.000000 73.786 -122.4581
20.299999 73.983 -122.7016
20.600000 74.164 -122.8459
20.900000 74.322 -122.9330
21.200001 74.452 -122.9662
21.400000 74.524 -122.9473
21.799999 74.642 -122.8315
22.000000 74.692 -122.7636
22.400000 74.780 -122.7084
22.700001 74.831 -122.8094
23.000000 74.860 -123.0462
23.299999 74.867 -123.3669
23.600000 74.859 -123.7250
24.000000 74.844 -124.2374
24.299999 74.844 -124.6930
24.700001 74.864 -125.4869
25.000000 74.888 -126.2418
25.400000 74.922 -127.3899
25.799999 74.962 -128.5500
26.200001 75.024 -129.6245
26.500000 75.090 -130.3804
26.900000 75.204 -131.3604
27.200001 75.299 -132.0813
27.600000 75.429 -132.9895
28.000000 75.555 -133.7791
28.500000 75.705 -134.5662
29.000000 75.842 -135.1598
29.500000 75.960 -135.5818
30.000000 76.065 -135.8757
30.400000 76.140 -136.1003
30.700001 76.189 -136.3063
31.100000 76.237 -136.6398
31.500000 76.264 -136.9994
32.000000 76.280 -137.4218
32.500000 76.301 -137.8615
33.000000 76.332 -138.4525
33.500000 76.362 -139.2199
34.000000 76.384 -140.0452
34.500000 76.411 -140.8238
35.000000 76.456 -141.5605
35.500000 76.519 -142.2992
36.000000 76.589 -143.0425
36.500000 76.658 -143.7593
37.000000 76.721 -144.4089
37.500000 76.778 -144.9600
38.200001 76.856 -145.6021
38.700001 76.909 -146.0623
39.500000 76.961 -146.8179
40.000000 76.978 -147.1869
40.599998 77.016 -147.5675
41.200001 77.074 -148.1329
41.799999 77.114 -148.9257
42.500000 77.122 -149.7800
43.099998 77.139 -150.2772
43.700001 77.193 -150.7944
44.400002 77.253 -151.6261
45.000000 77.267 -152.2818
45.500000 77.276 -152.5928
46.200001 77.333 -152.8906
46.799999 77.407 -153.3916
47.500000 77.453 -154.2111
48.200001 77.463 -154.9425
48.700001 77.468 -155.4151
49.400002 77.470 -156.1012
50.000000 77.465 -156.6597
50.799999 77.455 -157.3800
51.500000 77.425 -157.9211
52.200001 77.401 -158.0806
53.000000 77.467 -158.1174
53.799999 77.574 -158.7522
54.500000 77.611 -159.5998
55.200001 77.604 -160.2975
56.000000 77.592 -160.8231
57.000000 77.623 -161.4169
58.000000 77.646 -162.2911
59.000000 77.645 -162.9074
60.000000 77.686 -163.5878
60.799999 77.681 -164.2180
61.500000 77.672 -164.5306
62.200001 77.689 -164.8475
63.000000 77.697 -165.3859
64.000000 77.682 -165.9119
65.000000 77.692 -166.4457
66.000000 77.693 -167.0574
67.000000 77.702 -167.6402
68.000000 77.705 -168.2617
69.000000 77.710 -168.8155
70.000000 77.707 -169.3960
71.000000 77.698 -169.8770
72.000000 77.694 -170.3736
73.000000 77.685 -170.8427
74.000000 77.686 -171.3296
75.000000 77.676 -171.8366
76.199997 77.670 -172.3181
77.500000 77.665 -172.9444
78.800003 77.646 -173.4687
80.000000 77.642 -173.9831
81.199997 77.633 -174.6147
82.500000 77.608 -175.2488
83.800003 77.590 -175.8044
85.000000 77.578 -176.2485
86.199997 77.570 -176.7343
87.500000 77.543 -177.2386
88.500000 77.525 -177.5648
90.000000 77.498 -178.1029
91.199997 77.479 -178.5254
92.500000 77.451 -178.9639
93.800003 77.439 -179.3743
95.000000 77.414 -179.8355
96.199997 77.385 179.7726
97.500000 77.356 179.3795
98.800003 77.324 178.9734
100.000000 77.304 178.7380
101.500000 77.282 178.1308
103.000000 77.242 177.7926
104.400002 77.203 177.2745
106.000000 77.172 176.9444
107.500000 77.137 176.5487
109.000000 77.108 176.1780
110.599998 77.064 175.8732
112.000000 77.033 175.6230
113.800003 76.989 175.2482
115.000000 76.973 175.0551
117.199997 76.939 174.7178
118.000000 76.936 174.4934
120.599998 76.895 173.8903
122.000000 76.874 173.6075
124.099998 76.840 173.0803
125.000000 76.827 172.9062
126.500000 76.791 172.5460
128.000000 76.746 172.3074
131.500000 76.677 171.4991
132.000000 76.668 171.3967
134.000000 76.620 171.0277
136.000000 76.575 170.6963
138.000000 76.519 170.3645
140.000000 76.485 169.9862
143.000000 76.405 169.5573
145.000000 76.351 169.2564
147.500000 76.290 168.9444
150.000000 76.204 168.6422
152.500000 76.150 168.2738
155.000000 76.091 168.0099
157.500000 76.038 167.8062
160.000000 75.974 167.5218
162.500000 75.907 167.3439
165.000000 75.845 167.1465
167.500000 75.795 166.9435
170.000000 75.739 166.7472
172.500000 75.695 166.6271
175.000000 75.633 166.5185
177.500000 75.588 166.3880
180.000000 75.546 166.2448
182.500000 75.499 166.0604
185.000000 75.472 165.9781
187.500000 75.430 165.7064
190.000000 75.368 165.5508
192.500000 75.333 165.4336
195.000000 75.284 165.2029
197.500000 75.253 165.0623
200.000000 75.171 164.8665
203.000000 75.130 164.6516
206.000000 75.070 164.4412
209.000000 75.013 164.3059
212.000000 74.947 164.1990
214.000000 74.905 164.1002
218.000000 74.818 163.9579
220.000000 74.802 163.8389
224.000000 74.707 163.7299
227.000000 74.657 163.6168
230.000000 74.576 163.5023
233.000000 74.528 163.5624
236.000000 74.469 163.3998
240.000000 74.391 163.3167
243.000000 74.327 163.3672
247.000000 74.261 163.2676
250.000000 74.191 163.1193
254.000000 74.123 163.1373
258.000000 74.057 163.1634
262.000000 73.988 163.1692
265.000000 73.919 163.2048
269.000000 73.857 163.2121
272.000000 73.800 163.2193
276.000000 73.733 163.3140
280.000000 73.670 163.3189
285.000000 73.586 163.4514
290.000000 73.503 163.4850
295.000000 73.417 163.5118
300.000000 73.347 163.6146
304.000000 73.278 163.6563
307.000000 73.239 163.8546
311.000000 73.167 164.0187
315.000000 73.111 164.1674
320.000000 73.033 164.2454
325.000000 72.971 164.5138
330.000000 72.890 164.6773
335.000000 72.806 164.8202
340.000000 72.748 165.0694
345.000000 72.696 165.2971
350.000000 72.634 165.4998
355.000000 72.552 165.6356
360.000000 72.491 165.7922
365.000000 72.416 165.9724
370.000000 72.370 166.1954
375.000000 72.314 166.4946
382.000000 72.228 166.7349
387.000000 72.186 167.0011
395.000000 72.085 167.4292
400.000000 72.034 167.6017
406.000000 71.961 167.9900
412.000000 71.903 168.2394
418.000000 71.841 168.6414
425.000000 71.772 168.9244
431.000000 71.725 169.2712
437.000000 71.642 169.7102
444.000000 71.588 169.9264
450.000000 71.533 170.4445
455.000000 71.502 170.5646
462.000000 71.447 171.1200
468.000000 71.406 171.4019
475.000000 71.352 171.9216
482.000000 71.274 172.2273
487.000000 71.228 172.7361
494.000000 71.189 172.8766
500.000000 71.127 173.2473
508.000000 71.089 173.8079
515.000000 71.038 174.3415
522.000000 70.999 174.8840
530.000000 70.959 175.3442
538.000000 70.880 175.8676
545.000000 70.856 176.3065
552.000000 70.817 176.8026
560.000000 70.786 177.1364
570.000000 70.736 177.8469
580.000000 70.673 178.6560
590.000000 70.609 179.2499
600.000000 70.566 179.8747
608.000000 70.522 -179.4479
615.000000 70.510 -178.8436
622.000000 70.512 -178.3424
630.000000 70.457 -178.0990
640.000000 70.425 -177.1311
650.000000 70.387 -176.6519
660.000000 70.369 -175.8378
670.000000 70.343 -175.2030
680.000000 70.326 -174.4701
690.000000 70.285 -173.7076
700.000000 70.283 -172.6583
710.000000 70.244 -172.1885
720.000000 70.219 -171.5355
730.000000 70.211 -170.6388
740.000000 70.226 -170.0802
750.000000 70.219 -169.3290
762.000000 70.235 -168.4231
775.000000 70.219 -167.5448
788.000000 70.206 -166.3685
800.000000 70.233 -165.7556
812.000000 70.252 -164.8957
825.000000 70.236 -163.8589
838.000000 70.282 -162.8290
850.000000 70.326 -161.9238
862.000000 70.353 -161.0132
875.000000 70.375 -159.9754
885.000000 70.440 -159.5946
900.000000 70.472 -158.5283
912.000000 70.546 -157.8307
925.000000 70.572 -157.3950
938.000000 70.517 -156.6101
950.000000 70.572 -155.3262
962.000000 70.680 -154.2880
975.000000 70.782 -153.4895
988.000000 70.847 -152.6398
1000.000000 70.869 -152.3589
1015.000000 71.055 -151.1402
1030.000000 71.119 -150.5860
1044.000000 71.247 -149.7540
1060.000000 71.310 -149.1085
1075.000000 71.454 -148.4435
1090.000000 71.561 -147.8516
1106.000000 71.660 -147.1972
1120.000000 71.759 -146.9245
1138.000000 71.872 -146.0283
1150.000000 71.948 -145.6236
1172.000000 72.123 -145.0695
1180.000000 72.168 -144.9714
1206.000000 72.346 -144.1653
1220.000000 72.453 -144.1230
1241.000000 72.559 -143.5541
1250.000000 72.621 -143.3273
1265.000000 72.701 -143.0171
1280.000000 72.814 -142.9246
1315.000000 72.992 -142.1226
1320.000000 73.034 -142.0562
1340.000000 73.129 -141.7455
1360.000000 73.221 -141.5289
1380.000000 73.336 -141.0747
1400.000000 73.452 -140.7820
1430.000000 73.633 -140.2748
1450.000000 73.737 -140.0583
1475.000000 73.859 -139.7514
1500.000000 73.999 -139.4452
1525.000000 74.128 -139.0170
1550.000000 74.253 -138.6336
1575.000000 74.366 -138.4783
1600.000000 74.523 -138.0285
1625.000000 74.647 -137.8546
1650.000000 74.801 -137.5263
1675.000000 74.930 -137.3238
1700.000000 75.039 -136.9629
1725.000000 75.192 -136.8908
1750.000000 75.345 -136.6671
1775.000000 75.461 -136.6851
1800.000000 75.615 -136.4076
1825.000000 75.745 -136.3522
1850.000000 75.863 -136.2802
1875.000000 76.013 -136.1691
1900.000000 76.149 -136.1485
1925.000000 76.314 -136.2726
1950.000000 76.469 -136.2182
1975.000000 76.608 -136.2007
2000.000000 76.742 -135.8292
2030.000000 76.918 -136.3367
2060.000000 77.092 -136.6631
2090.000000 77.243 -136.9384
2120.000000 77.423 -137.0779
2140.000000 77.530 -137.1125
2180.000000 77.732 -137.6315
2200.000000 77.848 -137.8123
2240.000000 78.062 -138.1914
2270.000000 78.199 -138.4021
2300.000000 78.366 -138.5719
2330.000000 78.538 -138.6104
2360.000000 78.776 -138.8279
2400.000000 79.123 -139.5212
2430.000000 79.391 -140.5801
2470.000000 79.694 -142.2486
2500.000000 79.843 -143.7603
2540.000000 80.015 -145.6822
2580.000000 80.139 -147.7580
2620.000000 80.229 -149.4873
2650.000000 80.289 -150.8565
2690.000000 80.347 -152.4598
2720.000000 80.363 -153.5969
2760.000000 80.405 -155.2565
2800.000000 80.410 -156.7062
2850.000000 80.421 -158.4448
2900.000000 80.407 -160.1505
2950.000000 80.412 -161.7112
3000.000000 80.354 -163.3743
3040.000000 80.346 -164.2950
3070.000000 80.324 -165.1968
3110.000000 80.275 -166.2316
3150.000000 80.241 -167.2609
3200.000000 80.191 -168.5196
3250.000000 80.116 -169.6182
3300.000000 80.057 -170.5237
3350.000000 80.013 -171.4089
3400.000000 79.959 -172.3883
3450.000000 79.939 -173.2496
3500.000000 79.925 -174.3476
3550.000000 79.903 -175.3519
3600.000000 79.857 -176.5352
3650.000000 79.805 -177.7533
3700.000000 79.739 -178.9823
3750.000000 79.652 179.8187
3820.000000 79.501 178.2074
3870.000000 79.384 177.3187
3950.000000 79.213 176.0419
4000.000000 79.207 175.0009
4060.000000 79.024 174.0488
4120.000000 78.897 172.8270
4180.000000 78.756 171.6041
4250.000000 78.559 170.2514
4310.000000 78.376 169.0911
4370.000000 78.199 167.9894
4440.000000 77.908 166.7531
4500.000000 77.680 165.7448
4550.000000 77.441 165.2387
4620.000000 77.102 164.3839
4680.000000 76.796 164.2887
4750.000000 76.460 164.4012
4820.000000 76.192 164.1302
4870.000000 75.963 163.9130
4940.000000 75.633 164.1796
5000.000000 75.306 164.4489
5080.000000 74.967 165.0042
5150.000000 74.627 165.7550
5220.000000 74.342 166.5980
5300.000000 74.002 167.8743
5380.000000 73.731 169.2401
5450.000000 73.466 170.2487
5520.000000 73.237 171.9552
5600.000000 73.005 173.6519
5700.000000 72.746 176.1197
5800.000000 72.502 178.5068
5900.000000 72.302 -178.5053
6000.000000 72.171 -176.4371
6080.000000 72.084 -173.5307
6150.000000 72.092 -171.5769
6220.000000 71.984 -169.6403
6300.000000 72.032 -167.1292
6400.000000 72.022 -164.5480
6500.000000 72.242 -161.0656
6600.000000 72.345 -158.4825
6700.000000 72.599 -155.7687
6800.000000 72.837 -152.9318
6900.000000 73.199 -150.8101
7000.000000 73.519 -149.2037
7100.000000 73.973 -147.0992
7200.000000 74.520 -145.7219
7300.000000 75.077 -144.5168
7400.000000 75.771 -143.9185
7500.000000 76.527 -144.3659
7620.000000 77.595 -146.2463
7750.000000 78.762 -151.2680
7880.000000 79.705 -160.2437
8000.000000 80.080 -171.3788
8120.000000 79.707 177.3591
8250.000000 78.673 167.6730
8380.000000 77.386 161.9304
8500.000000 76.206 159.6617
8620.000000 75.176 159.0912
8750.000000 74.199 159.7925
8850.000000 73.576 161.0468
9000.000000 72.734 163.9663
9120.000000 72.207 165.9781
9250.000000 71.742 168.8147
9380.000000 71.383 171.6144
9500.000000 71.120 174.4938
9620.000000 70.969 177.3915
9750.000000 70.914 -179.2585
9880.000000 70.915 -175.9263
10000.000000 71.165 -172.8662
10150.000000 71.420 -169.7595
10300.000000 71.912 -167.5051
10440.000000 72.482 -166.4580
10600.000000 73.454 -166.1348
10750.000000 74.469 -168.6642
10900.000000 75.492 -174.8247
11060.000000 76.196 173.9039
11200.000000 76.114 161.6419
11380.000000 74.891 147.4712
11500.000000 73.611 141.2214
11720.000000 71.287 136.5248
11800.000000 70.379 135.5668
12060.000000 67.998 136.9539
12200.000000 67.098 140.7136
12410.000000 65.710 144.7834
12500.000000 65.143 145.8640
12650.000000 64.424 150.1215
12800.000000 63.724 154.9489
13150.000000 62.540 165.6841
13200.000000 62.467 165.4242
13400.000000 62.260 171.3147
13600.000000 61.814 175.3335
13800.000000 61.661 176.4907
14000.000000 61.918 177.4762
14300.000000 61.414 -177.8707
14500.000000 61.170 -176.1905
14750.000000 60.846 -173.0173
15000.000000 60.526 -170.4282
15250.000000 60.632 -162.4245
15500.000000 60.934 -161.8710
15750.000000 61.453 -164.3869
16000.000000 61.033 -170.0609
16250.000000 60.634 -168.4870
16500.000000 60.066 -165.6678
16750.000000 60.365 -164.5478
17000.000000 60.424 -165.0382
17250.000000 61.376 -170.4358
17500.000000 61.784 -179.2742
17750.000000 61.013 159.8247
18000.000000 58.175 146.2346
18250.000000 54.272 141.2422
18500.000000 51.481 138.5259
18750.000000 46.471 128.3325
19000.000000 43.455 151.7923
19250.000000 42.148 156.1192
19500.000000 40.372 -170.1437
19750.000000 37.315 173.8923
20000.000000 35.714 -143.5421
20300.000000 35.884 -123.0626
20600.000000 35.745 -97.8645
20900.000000 22.825 -164.7632
21200.000000 32.583 -122.5669
21400.000000 33.863 -70.8325
21800.000000 26.511 -133.7656
22000.000000 11.730 -54.1426
22400.000000 11.585 -24.9531
22700.000000 10.906 159.1602
23000.000000 7.970 -48.4375
23300.000000 8.671 154.4297
23600.000000 27.551 -82.7812

