* Measurement data measured by REW V5.20.13
* Source: Microphone (USB Sound Device        ), MICROPHONE (Master Volume), R, volume: 0,250
* Format: 256k Log Swept Sine, 1 sweep at -12,0 dBFS with no timing reference
* Dated: 12:44:48 19-03-2024
* REW Settings:
*  C-weighting compensation: Off
*  Target level: 75.0 dB
* Note: ; 
* Measurement: Oriveti OD200 Silver L
* Smoothing: None
* Frequency Step: 1/48 octave
* Start Frequency: 1.000 Hz
*
* Freq(Hz) SPL(dB) Phase(degrees)
1.000000 84.683 120.8892
1.015000 84.511 120.0024
1.030000 84.333 119.1152
1.044000 84.161 118.2867
1.060000 83.956 117.3392
1.075000 83.757 116.4503
1.090000 83.550 115.5609
1.106000 83.325 114.6404
1.120000 83.148 114.0141
1.138000 82.948 113.4633
1.150000 82.830 113.2317
1.172000 82.634 113.0310
1.180000 82.568 113.0149
1.206000 82.361 113.0985
1.220000 82.250 113.1897
1.241000 82.072 113.3207
1.250000 81.990 113.3570
1.265000 81.842 113.3671
1.280000 81.677 113.2882
1.315000 81.197 112.5884
1.320000 81.116 112.4132
1.340000 80.752 111.4798
1.360000 80.320 110.1207
1.380000 79.809 108.2648
1.400000 79.209 105.8406
1.430000 78.122 100.9832
1.450000 77.259 96.8268
1.475000 75.982 90.4328
1.500000 74.303 82.3467
1.525000 72.246 72.7095
1.550000 69.888 61.7718
1.575000 67.307 49.7837
1.600000 64.579 36.9958
1.625000 61.782 23.6585
1.650000 58.993 10.0221
1.675000 56.290 -3.6629
1.700000 53.750 -17.1463
1.725000 51.450 -30.1775
1.750000 49.467 -42.5062
1.775000 47.879 -53.8820
1.800000 46.763 -64.0545
1.825000 46.196 -72.7734
1.850000 46.246 -80.0497
1.875000 46.887 -86.4262
1.900000 48.041 -92.0075
1.925000 49.629 -96.8745
1.950000 51.573 -101.1083
1.975000 53.795 -104.7898
2.000000 56.217 -108.0001
2.030000 59.275 -111.3446
2.060000 62.372 -114.2672
2.090000 65.372 -116.9079
2.120000 68.141 -119.4067
2.140000 69.790 -121.0628
2.180000 72.439 -124.5385
2.200000 73.251 -126.4378
2.240000 73.344 -129.9637
2.270000 73.505 -132.2091
2.300000 73.725 -134.1652
2.330000 73.990 -135.8796
2.360000 74.282 -137.3999
2.400000 74.686 -139.2074
2.430000 74.978 -140.4600
2.470000 75.323 -142.0831
2.500000 75.527 -143.3269
2.540000 75.695 -145.1111
2.580000 75.740 -147.1186
2.620000 75.746 -149.2092
2.650000 75.721 -150.7886
2.690000 75.646 -152.8872
2.720000 75.557 -154.4404
2.760000 75.395 -156.4610
2.800000 75.181 -158.3984
2.850000 74.839 -160.6605
2.900000 74.409 -162.6938
2.950000 73.884 -164.5772
3.000000 73.218 -167.2639
3.040000 72.598 -169.7909
3.070000 72.093 -171.6910
3.110000 71.381 -173.9673
3.150000 70.641 -175.6488
3.200000 69.704 -176.4137
3.250000 68.786 -175.0945
3.300000 67.921 -171.0447
3.350000 66.956 -163.1727
3.400000 65.840 -151.8592
3.450000 64.685 -138.3499
3.500000 63.602 -123.8899
3.550000 62.703 -109.7248
3.600000 62.098 -97.0999
3.650000 61.898 -87.2606
3.700000 62.228 -80.6863
3.750000 63.093 -75.9961
3.820000 64.907 -71.8908
3.870000 66.419 -70.2892
3.950000 68.773 -69.1621
4.000000 69.957 -68.8646
4.060000 70.894 -68.6591
4.120000 71.558 -69.5644
4.180000 72.037 -71.4138
4.250000 72.415 -74.2699
4.310000 72.634 -76.8926
4.370000 72.797 -79.2851
4.440000 72.942 -81.5920
4.500000 72.973 -83.6666
4.550000 72.936 -85.4254
4.620000 72.796 -87.8018
4.680000 72.604 -89.6362
4.750000 72.308 -91.3812
4.820000 71.916 -92.8471
4.870000 71.560 -93.9127
4.940000 70.984 -95.1650
5.000000 70.446 -95.7724
5.080000 69.708 -95.5054
5.150000 69.071 -93.8775
5.220000 68.314 -90.7765
5.300000 67.373 -85.8966
5.380000 66.520 -80.2066
5.450000 65.983 -75.0678
5.520000 65.760 -70.0912
5.600000 65.885 -63.5302
5.700000 66.405 -54.8412
5.800000 67.068 -47.4310
5.900000 67.639 -43.1256
6.000000 68.281 -41.7670
6.080000 68.810 -42.0356
6.150000 69.219 -42.8029
6.220000 69.525 -43.6924
6.300000 69.740 -44.9708
6.400000 69.875 -47.4270
6.500000 69.874 -50.3314
6.600000 69.749 -53.1418
6.700000 69.488 -55.9901
6.800000 69.096 -58.9566
6.900000 68.596 -61.6763
7.000000 68.003 -63.8606
7.100000 67.269 -65.7974
7.200000 66.454 -67.2877
7.300000 65.640 -67.9871
7.400000 64.840 -67.5359
7.500000 63.988 -66.0286
7.620000 63.082 -63.6288
7.750000 62.483 -61.0851
7.880000 62.251 -57.8771
8.000000 62.244 -55.6884
8.120000 62.369 -55.7055
8.250000 62.722 -57.8158
8.380000 63.147 -61.3517
8.500000 63.483 -65.5905
8.620000 63.817 -71.0719
8.750000 64.161 -77.4437
8.850000 64.401 -82.1358
9.000000 64.730 -89.3952
9.120000 64.968 -94.8237
9.250000 65.198 -99.8702
9.380000 65.398 -104.2931
9.500000 65.579 -107.6444
9.620000 65.759 -110.1294
9.750000 65.949 -111.9498
9.880000 66.173 -113.1236
10.000000 66.428 -113.6177
10.150000 66.793 -113.5020
10.300000 67.209 -113.2570
10.440000 67.655 -112.8807
10.600000 68.182 -112.4467
10.750000 68.656 -112.2875
10.900000 69.118 -112.2473
11.060000 69.553 -112.2352
11.200000 69.886 -112.2796
11.380000 70.261 -112.2216
11.500000 70.474 -112.0662
11.720000 70.813 -111.5872
11.800000 70.927 -111.3354
12.060000 71.262 -110.3092
12.200000 71.432 -109.7350
12.410000 71.669 -108.8570
12.500000 71.761 -108.5205
12.650000 71.901 -108.0091
12.800000 72.020 -107.5301
13.150000 72.203 -106.4951
13.200000 72.221 -106.3367
13.400000 72.268 -105.6605
13.600000 72.302 -104.9479
13.800000 72.331 -104.1844
14.000000 72.363 -103.5348
14.300000 72.419 -102.8669
14.500000 72.448 -102.7708
14.750000 72.452 -102.9944
15.000000 72.413 -103.5550
15.250000 72.326 -104.2536
15.500000 72.219 -104.9667
15.750000 72.112 -105.6537
16.000000 72.041 -106.3396
16.250000 72.018 -107.1896
16.500000 72.042 -108.2732
16.750000 72.102 -109.6798
17.000000 72.175 -111.3084
17.250000 72.257 -113.0547
17.500000 72.341 -114.7725
17.750000 72.439 -116.3170
18.000000 72.558 -117.6692
18.250000 72.705 -118.8143
18.500000 72.880 -119.8211
18.750000 73.072 -120.7167
19.000000 73.274 -121.5251
19.250000 73.471 -122.2272
19.500000 73.661 -122.8011
19.750000 73.841 -123.2342
20.000000 74.014 -123.5365
20.299999 74.210 -123.7826
20.600000 74.388 -123.9512
20.900000 74.542 -124.0761
21.200001 74.666 -124.1475
21.400000 74.732 -124.1476
21.799999 74.840 -124.0508
22.000000 74.886 -123.9851
22.400000 74.970 -123.9336
22.700001 75.020 -124.0525
23.000000 75.049 -124.3300
23.299999 75.053 -124.7098
23.600000 75.037 -125.1312
24.000000 75.005 -125.7033
24.299999 74.988 -126.1629
24.700001 74.985 -126.8967
25.000000 74.995 -127.5660
25.400000 75.017 -128.5682
25.799999 75.053 -129.5723
26.200001 75.115 -130.5013
26.500000 75.186 -131.1637
26.900000 75.308 -132.0475
27.200001 75.410 -132.7192
27.600000 75.549 -133.5890
28.000000 75.683 -134.3632
28.500000 75.844 -135.1576
29.000000 75.991 -135.8002
29.500000 76.117 -136.3213
30.000000 76.219 -136.7285
30.400000 76.287 -137.0102
30.700001 76.331 -137.2270
31.100000 76.378 -137.5469
31.500000 76.412 -137.8986
32.000000 76.442 -138.3741
32.500000 76.470 -138.9324
33.000000 76.497 -139.6291
33.500000 76.517 -140.4267
34.000000 76.536 -141.2237
34.500000 76.568 -141.9854
35.000000 76.620 -142.7565
35.500000 76.680 -143.5532
36.000000 76.741 -144.3211
36.500000 76.802 -145.0099
37.000000 76.864 -145.6142
37.500000 76.923 -146.1463
38.200001 77.003 -146.8009
38.700001 77.055 -147.2527
39.500000 77.116 -148.0021
40.000000 77.141 -148.4526
40.599998 77.167 -148.9793
41.200001 77.192 -149.5453
41.799999 77.213 -150.1406
42.500000 77.241 -150.8290
43.099998 77.271 -151.4423
43.700001 77.301 -152.0665
44.400002 77.334 -152.7285
45.000000 77.372 -153.2603
45.500000 77.406 -153.7356
46.200001 77.441 -154.4237
46.799999 77.462 -154.9463
47.500000 77.497 -155.5189
48.200001 77.534 -156.2300
48.700001 77.543 -156.7908
49.400002 77.534 -157.3901
50.000000 77.549 -157.7028
50.799999 77.618 -158.3110
51.500000 77.648 -159.1061
52.200001 77.639 -159.6885
53.000000 77.656 -160.0747
53.799999 77.691 -160.6427
54.500000 77.692 -161.1919
55.200001 77.687 -161.6115
56.000000 77.700 -162.1120
57.000000 77.710 -162.9247
58.000000 77.708 -163.6816
59.000000 77.725 -164.4254
60.000000 77.734 -165.1834
60.799999 77.738 -165.6806
61.500000 77.745 -166.0751
62.200001 77.753 -166.4591
63.000000 77.762 -166.9277
64.000000 77.759 -167.5548
65.000000 77.755 -168.1530
66.000000 77.747 -168.8443
67.000000 77.727 -169.4361
68.000000 77.729 -169.9386
69.000000 77.736 -170.5079
70.000000 77.734 -171.0522
71.000000 77.732 -171.5600
72.000000 77.723 -172.1247
73.000000 77.697 -172.6064
74.000000 77.688 -173.0228
75.000000 77.680 -173.5705
76.199997 77.650 -174.1452
77.500000 77.628 -174.6873
78.800003 77.608 -175.2337
80.000000 77.579 -175.7538
81.199997 77.558 -176.1681
82.500000 77.537 -176.7417
83.800003 77.499 -177.1932
85.000000 77.470 -177.5622
86.199997 77.437 -177.9003
87.500000 77.399 -178.2259
88.500000 77.381 -178.4111
90.000000 77.365 -178.7662
91.199997 77.371 -178.9834
92.500000 77.380 -179.3474
93.800003 77.393 -179.7041
95.000000 77.396 179.8771
96.199997 77.396 179.4205
97.500000 77.383 178.9338
98.800003 77.384 178.3244
100.000000 77.340 177.8585
101.500000 77.333 177.4462
103.000000 77.304 176.9704
104.400002 77.282 176.4981
106.000000 77.239 175.8795
107.500000 77.190 175.5730
109.000000 77.173 175.0994
110.599998 77.145 174.6354
112.000000 77.104 174.2516
113.800003 77.073 173.7906
115.000000 77.036 173.4475
117.199997 76.979 172.9461
118.000000 76.953 172.7833
120.599998 76.894 172.1732
122.000000 76.857 171.9468
124.099998 76.821 171.4896
125.000000 76.798 171.3253
126.500000 76.759 171.0246
128.000000 76.724 170.7881
131.500000 76.638 170.0365
132.000000 76.620 169.9766
134.000000 76.587 169.6041
136.000000 76.540 169.3166
138.000000 76.487 168.9480
140.000000 76.440 168.7044
143.000000 76.376 168.2242
145.000000 76.305 167.9290
147.500000 76.247 167.5745
150.000000 76.173 167.1760
152.500000 76.130 166.8340
155.000000 76.076 166.4619
157.500000 76.015 166.2007
160.000000 75.952 165.9398
162.500000 75.900 165.7014
165.000000 75.827 165.4333
167.500000 75.781 165.2222
170.000000 75.702 164.9900
172.500000 75.644 164.7529
175.000000 75.591 164.5009
177.500000 75.532 164.3221
180.000000 75.465 164.1282
182.500000 75.413 163.9119
185.000000 75.355 163.8258
187.500000 75.306 163.6425
190.000000 75.239 163.4804
192.500000 75.174 163.3552
195.000000 75.136 163.1576
197.500000 75.059 163.0938
200.000000 75.022 163.1221
203.000000 74.944 162.7487
206.000000 74.884 162.6150
209.000000 74.819 162.5523
212.000000 74.751 162.5163
214.000000 74.718 162.4589
218.000000 74.623 162.2935
220.000000 74.578 162.3682
224.000000 74.505 162.2662
227.000000 74.430 162.0424
230.000000 74.378 162.0681
233.000000 74.306 162.0284
236.000000 74.248 161.9685
240.000000 74.195 162.0503
243.000000 74.133 162.0005
247.000000 74.050 161.8500
250.000000 74.014 161.8333
254.000000 73.911 161.9496
258.000000 73.842 162.0486
262.000000 73.760 162.0063
265.000000 73.713 161.9100
269.000000 73.646 161.9911
272.000000 73.592 161.9846
276.000000 73.529 162.0283
280.000000 73.461 162.1853
285.000000 73.362 162.4070
290.000000 73.272 162.3926
295.000000 73.214 162.5188
300.000000 73.138 162.4706
304.000000 73.063 162.6510
307.000000 73.020 162.7689
311.000000 72.970 162.9036
315.000000 72.898 163.0851
320.000000 72.834 163.1568
325.000000 72.770 163.3101
330.000000 72.669 163.6599
335.000000 72.623 163.7607
340.000000 72.549 164.0372
345.000000 72.509 164.0840
350.000000 72.400 164.1896
355.000000 72.360 164.3061
360.000000 72.298 164.7427
365.000000 72.238 164.9305
370.000000 72.195 164.9903
375.000000 72.113 165.2859
382.000000 72.032 165.6545
387.000000 71.969 165.8457
395.000000 71.863 166.2008
400.000000 71.821 166.4730
406.000000 71.787 166.8958
412.000000 71.711 167.0437
418.000000 71.639 167.4612
425.000000 71.571 167.8120
431.000000 71.492 168.0712
437.000000 71.442 168.4347
444.000000 71.359 168.9258
450.000000 71.328 169.3892
455.000000 71.286 169.6808
462.000000 71.233 170.1683
468.000000 71.195 170.3988
475.000000 71.127 170.7638
482.000000 71.054 171.2677
487.000000 71.036 171.3565
494.000000 70.980 171.9163
500.000000 70.964 172.0531
508.000000 70.879 172.7109
515.000000 70.818 173.2124
522.000000 70.789 173.5057
530.000000 70.769 174.1295
538.000000 70.670 174.6108
545.000000 70.646 174.9711
552.000000 70.615 175.2925
560.000000 70.549 176.0298
570.000000 70.504 176.7253
580.000000 70.454 177.2960
590.000000 70.412 178.0493
600.000000 70.362 178.6644
608.000000 70.343 179.0977
615.000000 70.306 179.6534
622.000000 70.264 -179.9135
630.000000 70.249 -179.3639
640.000000 70.192 -178.6903
650.000000 70.157 -177.9511
660.000000 70.131 -177.2401
670.000000 70.091 -176.5239
680.000000 70.063 -175.9486
690.000000 70.045 -175.2755
700.000000 70.049 -174.4086
710.000000 70.022 -173.7340
720.000000 69.976 -173.0018
730.000000 69.978 -172.1409
740.000000 69.963 -171.5715
750.000000 69.932 -170.7118
762.000000 69.957 -169.8497
775.000000 69.946 -169.1139
788.000000 69.960 -168.1233
800.000000 69.932 -167.1779
812.000000 69.983 -166.2460
825.000000 70.008 -165.1939
838.000000 70.025 -164.3628
850.000000 70.063 -163.6227
862.000000 70.094 -162.6835
875.000000 70.131 -161.6699
885.000000 70.178 -160.9867
900.000000 70.224 -159.9501
912.000000 70.283 -159.3400
925.000000 70.348 -158.6763
938.000000 70.423 -157.9373
950.000000 70.481 -157.3662
962.000000 70.535 -156.7869
975.000000 70.563 -156.3533
988.000000 70.607 -155.4672
1000.000000 70.587 -155.3998
1015.000000 70.690 -154.0995
1030.000000 70.786 -153.4218
1044.000000 70.801 -152.5597
1060.000000 70.891 -151.7620
1075.000000 70.962 -150.7715
1090.000000 71.066 -150.0054
1106.000000 71.190 -149.3475
1120.000000 71.301 -148.7704
1138.000000 71.383 -148.2433
1150.000000 71.500 -147.7261
1172.000000 71.657 -146.9893
1180.000000 71.656 -146.7891
1206.000000 71.873 -146.3344
1220.000000 71.953 -145.7887
1241.000000 72.085 -145.3828
1250.000000 72.145 -145.0947
1265.000000 72.229 -144.7150
1280.000000 72.284 -144.5173
1315.000000 72.457 -143.8976
1320.000000 72.506 -143.8174
1340.000000 72.604 -143.3921
1360.000000 72.696 -142.9398
1380.000000 72.793 -142.5576
1400.000000 72.915 -142.1962
1430.000000 73.083 -141.6145
1450.000000 73.147 -141.4703
1475.000000 73.294 -140.9920
1500.000000 73.407 -140.6231
1525.000000 73.521 -140.3113
1550.000000 73.655 -139.8913
1575.000000 73.792 -139.5186
1600.000000 73.878 -139.0950
1625.000000 74.006 -138.8632
1650.000000 74.147 -138.4579
1675.000000 74.270 -138.0039
1700.000000 74.391 -137.9014
1725.000000 74.513 -137.4743
1750.000000 74.617 -137.1541
1775.000000 74.768 -136.8059
1800.000000 74.899 -136.4955
1825.000000 75.027 -136.1296
1850.000000 75.163 -135.9211
1875.000000 75.310 -135.5661
1900.000000 75.469 -135.3562
1925.000000 75.605 -134.9202
1950.000000 75.786 -134.6579
1975.000000 75.940 -134.3500
2000.000000 76.111 -133.7121
2030.000000 76.354 -134.0610
2060.000000 76.586 -133.6669
2090.000000 76.842 -133.7142
2120.000000 77.127 -133.7208
2140.000000 77.304 -133.9607
2180.000000 77.654 -134.8639
2200.000000 77.834 -135.3199
2240.000000 78.122 -136.2662
2270.000000 78.326 -137.0937
2300.000000 78.558 -137.7892
2330.000000 78.805 -138.8174
2360.000000 79.003 -140.1958
2400.000000 79.244 -142.2636
2430.000000 79.345 -143.6705
2470.000000 79.459 -145.4257
2500.000000 79.529 -146.7525
2540.000000 79.617 -148.1551
2580.000000 79.703 -149.5183
2620.000000 79.800 -150.8517
2650.000000 79.843 -151.9409
2690.000000 79.946 -153.2845
2720.000000 80.006 -154.2972
2760.000000 80.055 -155.8590
2800.000000 80.097 -157.3461
2850.000000 80.148 -159.0711
2900.000000 80.155 -160.8322
2950.000000 80.158 -162.6030
3000.000000 80.131 -164.4137
3040.000000 80.155 -165.4812
3070.000000 80.118 -166.3381
3110.000000 80.089 -167.5561
3150.000000 80.039 -168.7605
3200.000000 80.002 -170.0940
3250.000000 79.953 -171.3446
3300.000000 79.898 -172.5023
3350.000000 79.876 -173.8035
3400.000000 79.824 -175.2731
3450.000000 79.790 -176.5322
3500.000000 79.722 -178.0555
3550.000000 79.624 -179.3363
3600.000000 79.535 179.2213
3650.000000 79.383 177.8520
3700.000000 79.255 176.7092
3750.000000 79.097 175.6650
3820.000000 78.902 174.2229
3870.000000 78.735 173.5127
3950.000000 78.512 172.4009
4000.000000 78.433 171.2315
4060.000000 78.207 170.6406
4120.000000 78.051 169.5743
4180.000000 77.910 168.7119
4250.000000 77.681 167.7717
4310.000000 77.450 166.9482
4370.000000 77.243 165.9783
4440.000000 76.962 165.0367
4500.000000 76.692 164.4989
4550.000000 76.440 164.3205
4620.000000 76.095 163.7186
4680.000000 75.785 164.6201
4750.000000 75.606 164.6564
4820.000000 75.363 164.4888
4870.000000 75.144 164.5192
4940.000000 74.798 164.5933
5000.000000 74.515 164.7084
5080.000000 74.243 165.4447
5150.000000 73.940 166.5671
5220.000000 73.621 167.7200
5300.000000 73.370 168.8657
5380.000000 73.051 170.4350
5450.000000 72.853 171.4615
5520.000000 72.622 172.9213
5600.000000 72.400 174.8742
5700.000000 72.178 176.7985
5800.000000 71.956 179.5100
5900.000000 71.809 -177.6782
6000.000000 71.641 -175.6759
6080.000000 71.623 -173.1685
6150.000000 71.503 -171.3037
6220.000000 71.514 -169.2450
6300.000000 71.495 -167.2309
6400.000000 71.548 -163.8663
6500.000000 71.533 -161.0635
6600.000000 71.717 -157.9318
6700.000000 71.935 -155.2955
6800.000000 72.243 -152.5678
6900.000000 72.486 -149.9774
7000.000000 72.856 -147.8635
7100.000000 73.417 -145.1926
7200.000000 73.937 -143.3854
7300.000000 74.643 -142.1570
7400.000000 75.387 -141.5325
7500.000000 76.206 -141.7643
7620.000000 77.354 -144.5032
7750.000000 78.554 -149.9734
7880.000000 79.483 -159.3658
8000.000000 79.803 -170.4888
8120.000000 79.430 178.3029
8250.000000 78.473 168.8953
8380.000000 77.280 163.1433
8500.000000 76.152 160.3306
8620.000000 75.161 159.1362
8750.000000 74.142 159.5982
8850.000000 73.570 160.0960
9000.000000 72.659 162.3711
9120.000000 72.099 164.0000
9250.000000 71.566 166.8453
9380.000000 71.146 169.1123
9500.000000 70.888 172.2850
9620.000000 70.623 174.7861
9750.000000 70.553 178.0786
9880.000000 70.494 -178.6506
10000.000000 70.644 -175.9284
10150.000000 70.907 -173.2073
10300.000000 71.199 -170.3759
10440.000000 71.754 -169.0268
10600.000000 72.585 -169.1594
10750.000000 73.359 -170.9162
10900.000000 74.243 -174.9556
11060.000000 74.905 176.6668
11200.000000 75.066 167.0163
11380.000000 74.336 153.9509
11500.000000 73.373 146.6443
11720.000000 71.214 140.1891
11800.000000 70.512 138.7065
12060.000000 68.125 139.3561
12200.000000 67.096 140.9373
12410.000000 65.788 145.0772
12500.000000 65.087 146.5548
12650.000000 64.439 150.8605
12800.000000 63.836 153.5794
13150.000000 62.664 162.2826
13200.000000 62.366 163.0562
13400.000000 62.013 168.4462
13600.000000 61.920 171.2387
13800.000000 61.265 178.5844
14000.000000 60.892 179.6974
14300.000000 60.825 -177.5483
14500.000000 60.553 -173.0715
14750.000000 60.513 -171.1573
15000.000000 60.268 -164.6093
15250.000000 60.365 -163.1326
15500.000000 61.095 -162.8948
15750.000000 61.219 -166.2280
16000.000000 60.684 -168.4737
16250.000000 60.263 -167.3319
16500.000000 60.018 -166.5450
16750.000000 60.117 -164.1880
17000.000000 60.551 -164.9450
17250.000000 61.204 -169.5730
17500.000000 62.112 173.9542
17750.000000 58.331 166.1334
18000.000000 57.725 156.6017
18250.000000 54.119 150.6255
18500.000000 51.506 155.4643
18750.000000 49.488 151.7470
19000.000000 47.605 157.3171
19250.000000 43.408 169.1896
19500.000000 41.160 -174.4585
19750.000000 38.668 -161.6895
20000.000000 35.678 164.0660
20300.000000 36.384 -113.1816
20600.000000 30.634 -93.4657
20900.000000 28.630 -50.1061
21200.000000 25.630 -124.1779
21400.000000 32.727 -118.4497
21800.000000 23.922 -177.5127
22000.000000 24.523 -20.0469
22400.000000 12.700 -72.6748
22700.000000 17.434 169.7402
23000.000000 16.100 -71.8164
23300.000000 21.399 52.0547
23600.000000 26.589 -147.8945

