* Measurement data measured by REW V5.20.13
* Source: Microphone (USB Sound Device        ), MICROPHONE (Master Volume), R, volume: 0,250
* Format: 256k Log Swept Sine, 1 sweep at -12,0 dBFS with no timing reference
* Dated: 15:43:04 13-07-2024
* REW Settings:
*  C-weighting compensation: Off
*  Target level: 75.0 dB
* Note: ; 
* Measurement: Oriveti Dynabird L
* Smoothing: None
* Frequency Step: 1/48 octave
* Start Frequency: 1.000 Hz
*
* Freq(Hz) SPL(dB) Phase(degrees)
1.000000 84.038 122.5480
1.015000 83.845 121.6818
1.030000 83.643 120.8136
1.044000 83.447 120.0013
1.060000 83.212 119.0703
1.075000 82.981 118.1949
1.090000 82.740 117.3166
1.106000 82.471 116.3383
1.120000 82.222 115.2424
1.138000 81.885 113.4932
1.150000 81.651 112.1456
1.172000 81.202 109.3745
1.180000 81.034 108.2904
1.206000 80.467 104.5825
1.220000 80.151 102.5220
1.241000 79.666 99.4360
1.250000 79.454 98.1384
1.265000 79.097 96.0412
1.280000 78.734 94.0603
1.315000 77.876 90.1142
1.320000 77.752 89.6494
1.340000 77.256 88.0967
1.360000 76.760 87.1053
1.380000 76.265 86.7697
1.400000 75.774 87.1845
1.430000 75.048 89.4205
1.450000 74.575 92.1249
1.475000 73.992 97.1052
1.500000 73.346 104.4572
1.525000 72.637 113.9898
1.550000 71.883 125.3340
1.575000 71.102 138.1207
1.600000 70.311 151.9806
1.625000 69.531 166.5449
1.650000 68.777 -178.5558
1.675000 68.068 -163.6904
1.700000 67.423 -149.2279
1.725000 66.860 -135.5377
1.750000 66.396 -122.9887
1.775000 66.049 -111.9501
1.800000 65.839 -102.7909
1.825000 65.782 -95.8802
1.850000 65.906 -91.2983
1.875000 66.224 -88.4374
1.900000 66.712 -87.0814
1.925000 67.344 -87.0383
1.950000 68.093 -88.1161
1.975000 68.934 -90.1227
2.000000 69.839 -92.8660
2.030000 70.975 -96.8601
2.060000 72.121 -101.3067
2.090000 73.233 -105.8739
2.120000 74.265 -110.2299
2.140000 74.886 -112.8527
2.180000 75.908 -116.9808
2.200000 76.282 -118.2950
2.240000 76.863 -120.4281
2.270000 77.202 -121.9670
2.300000 77.468 -123.4557
2.330000 77.671 -124.8959
2.360000 77.820 -126.2892
2.400000 77.950 -128.0770
2.430000 78.007 -129.3676
2.470000 78.049 -131.0245
2.500000 78.065 -132.2216
2.540000 78.086 -133.7600
2.580000 78.117 -135.2441
2.620000 78.114 -136.7342
2.650000 78.083 -137.8456
2.690000 78.008 -139.2902
2.720000 77.929 -140.3257
2.760000 77.794 -141.6130
2.800000 77.632 -142.7602
2.850000 77.395 -143.9413
2.900000 77.130 -144.7751
2.950000 76.836 -145.2175
3.000000 76.460 -145.4473
3.040000 76.109 -145.4764
3.070000 75.826 -145.3859
3.110000 75.437 -145.0889
3.150000 75.047 -144.5594
3.200000 74.584 -143.5199
3.250000 74.176 -141.9998
3.300000 73.853 -139.9318
3.350000 73.582 -136.9988
3.400000 73.334 -133.2122
3.450000 73.119 -128.8717
3.500000 72.952 -124.2766
3.550000 72.845 -119.7262
3.600000 72.809 -115.5200
3.650000 72.858 -111.9574
3.700000 73.016 -109.0938
3.750000 73.302 -106.5034
3.820000 73.853 -103.3366
3.870000 74.305 -101.4300
3.950000 75.029 -99.0501
4.000000 75.427 -98.0129
4.060000 75.810 -97.2939
4.120000 76.163 -97.2842
4.180000 76.495 -97.8435
4.250000 76.843 -98.9794
4.310000 77.099 -100.1655
4.370000 77.308 -101.3612
4.440000 77.484 -102.6918
4.500000 77.581 -104.0466
4.550000 77.629 -105.2887
4.620000 77.649 -107.1024
4.680000 77.629 -108.6353
4.750000 77.567 -110.2807
4.820000 77.459 -111.7923
4.870000 77.346 -112.8849
4.940000 77.148 -114.3627
5.000000 76.950 -115.5154
5.080000 76.663 -116.7783
5.150000 76.400 -117.5331
5.220000 76.095 -118.0194
5.300000 75.707 -118.2856
5.380000 75.317 -118.2401
5.450000 75.007 -117.9424
5.520000 74.749 -117.3792
5.600000 74.481 -116.2080
5.700000 74.192 -114.2582
5.800000 73.988 -112.3023
5.900000 73.909 -110.8199
6.000000 73.971 -109.4704
6.080000 74.088 -108.5668
6.150000 74.211 -108.0420
6.220000 74.330 -107.8781
6.300000 74.471 -108.1973
6.400000 74.685 -109.2023
6.500000 74.897 -110.6926
6.600000 75.064 -112.4691
6.700000 75.184 -114.6415
6.800000 75.271 -117.1951
6.900000 75.325 -119.8709
7.000000 75.339 -122.4594
7.100000 75.307 -125.1388
7.200000 75.243 -127.8099
7.300000 75.163 -130.2835
7.400000 75.069 -132.4684
7.500000 74.948 -134.4726
7.620000 74.804 -136.5607
7.750000 74.691 -138.3066
7.880000 74.601 -139.4835
8.000000 74.562 -140.2631
8.120000 74.597 -140.8893
8.250000 74.709 -141.2604
8.380000 74.878 -141.5951
8.500000 75.075 -142.1004
8.620000 75.322 -142.6956
8.750000 75.605 -143.4714
8.850000 75.811 -144.2025
9.000000 76.122 -145.5244
9.120000 76.353 -146.6367
9.250000 76.566 -147.8168
9.380000 76.749 -149.0221
9.500000 76.895 -150.0323
9.620000 77.017 -150.8791
9.750000 77.123 -151.6624
9.880000 77.218 -152.2723
10.000000 77.300 -152.6466
10.150000 77.392 -152.9017
10.300000 77.490 -153.0253
10.440000 77.590 -152.9960
10.600000 77.708 -152.8971
10.750000 77.823 -152.8284
10.900000 77.939 -152.7567
11.060000 78.051 -152.7320
11.200000 78.141 -152.7563
11.380000 78.237 -152.8013
11.500000 78.287 -152.8365
11.720000 78.356 -152.8893
11.800000 78.375 -152.8909
12.060000 78.416 -152.8610
12.200000 78.431 -152.8389
12.410000 78.446 -152.8134
12.500000 78.450 -152.8304
12.650000 78.453 -152.8884
12.800000 78.448 -152.9915
13.150000 78.402 -153.4371
13.200000 78.391 -153.5127
13.400000 78.335 -153.8488
13.600000 78.270 -154.1944
13.800000 78.197 -154.5273
14.000000 78.129 -154.8751
14.300000 78.044 -155.4589
14.500000 78.006 -155.9675
14.750000 77.969 -156.7905
15.000000 77.941 -157.8338
15.250000 77.907 -159.0493
15.500000 77.868 -160.3202
15.750000 77.827 -161.5760
16.000000 77.795 -162.7185
16.250000 77.785 -163.7529
16.500000 77.804 -164.7012
16.750000 77.853 -165.6194
17.000000 77.922 -166.5509
17.250000 78.002 -167.4879
17.500000 78.082 -168.4116
17.750000 78.156 -169.2501
18.000000 78.225 -169.9755
18.250000 78.290 -170.5580
18.500000 78.355 -171.0135
18.750000 78.420 -171.3714
19.000000 78.484 -171.6589
19.250000 78.543 -171.9061
19.500000 78.592 -172.1132
19.750000 78.630 -172.2819
20.000000 78.658 -172.4090
20.299999 78.680 -172.5266
20.600000 78.690 -172.6348
20.900000 78.687 -172.7668
21.200001 78.670 -172.9415
21.400000 78.648 -173.0747
21.799999 78.589 -173.3633
22.000000 78.554 -173.5179
22.400000 78.486 -173.8737
22.700001 78.438 -174.2310
23.000000 78.394 -174.7049
23.299999 78.346 -175.2849
23.600000 78.296 -175.9299
24.000000 78.229 -176.8145
24.299999 78.188 -177.4597
24.700001 78.155 -178.3060
25.000000 78.149 -178.9580
25.400000 78.155 -179.8607
25.799999 78.169 179.2523
26.200001 78.186 178.4615
26.500000 78.204 177.9549
26.900000 78.233 177.3831
27.200001 78.256 177.0129
27.600000 78.285 176.5855
28.000000 78.306 176.2403
28.500000 78.321 175.9163
29.000000 78.323 175.6459
29.500000 78.307 175.3708
30.000000 78.270 175.0894
30.400000 78.231 174.8576
30.700001 78.199 174.6631
31.100000 78.154 174.3515
31.500000 78.105 173.9796
32.000000 78.041 173.4660
32.500000 77.985 172.9190
33.000000 77.944 172.3021
33.500000 77.911 171.6025
34.000000 77.878 170.8979
34.500000 77.849 170.2810
35.000000 77.832 169.7611
35.500000 77.826 169.2948
36.000000 77.822 168.8637
36.500000 77.816 168.4764
37.000000 77.804 168.1314
37.500000 77.784 167.8228
38.200001 77.744 167.4482
38.700001 77.713 167.1825
39.500000 77.651 166.6523
40.000000 77.599 166.3023
40.599998 77.534 165.9434
41.200001 77.486 165.5984
41.799999 77.452 165.1683
42.500000 77.410 164.5813
43.099998 77.369 164.1087
43.700001 77.332 163.6990
44.400002 77.294 163.2476
45.000000 77.258 162.8535
45.500000 77.220 162.5622
46.200001 77.167 162.2570
46.799999 77.133 161.9967
47.500000 77.088 161.5948
48.200001 77.030 161.2449
48.700001 76.997 161.0591
49.400002 76.969 160.7046
50.000000 76.935 160.2822
50.799999 76.865 159.8506
51.500000 76.818 159.6224
52.200001 76.782 159.3137
53.000000 76.721 158.9261
53.799999 76.655 158.6634
54.500000 76.611 158.4056
55.200001 76.561 158.0675
56.000000 76.497 157.7173
57.000000 76.436 157.2841
58.000000 76.371 156.8188
59.000000 76.313 156.4747
60.000000 76.257 156.1412
60.799999 76.207 155.9222
61.500000 76.160 155.7155
62.200001 76.103 155.5423
63.000000 76.047 155.4144
64.000000 75.991 155.0460
65.000000 75.902 154.6546
66.000000 75.839 154.4476
67.000000 75.792 154.0717
68.000000 75.720 153.7711
69.000000 75.661 153.6116
70.000000 75.601 153.3859
71.000000 75.528 153.2021
72.000000 75.459 153.0457
73.000000 75.397 152.8357
74.000000 75.328 152.5668
75.000000 75.256 152.3998
76.199997 75.187 152.2296
77.500000 75.115 152.0627
78.800003 75.041 151.8795
80.000000 74.966 151.7451
81.199997 74.900 151.6812
82.500000 74.842 151.5038
83.800003 74.771 151.3506
85.000000 74.718 151.2198
86.199997 74.650 151.0434
87.500000 74.586 150.9387
88.500000 74.533 150.7817
90.000000 74.461 150.6962
91.199997 74.412 150.4762
92.500000 74.329 150.3636
93.800003 74.267 150.2697
95.000000 74.200 150.2065
96.199997 74.139 150.0649
97.500000 74.069 150.1143
98.800003 74.006 150.0017
100.000000 73.972 150.2981
101.500000 73.940 149.7685
103.000000 73.839 149.7407
104.400002 73.772 149.5532
106.000000 73.693 149.3546
107.500000 73.636 149.3078
109.000000 73.590 149.2521
110.599998 73.507 149.0501
112.000000 73.447 149.1192
113.800003 73.344 149.0643
115.000000 73.296 149.1714
117.199997 73.219 148.9394
118.000000 73.168 148.9456
120.599998 73.090 149.0577
122.000000 73.023 148.9659
124.099998 72.939 149.0129
125.000000 72.909 149.0165
126.500000 72.839 149.0232
128.000000 72.780 148.9920
131.500000 72.640 149.0211
132.000000 72.632 149.1192
134.000000 72.572 148.9199
136.000000 72.516 149.1188
138.000000 72.445 149.0877
140.000000 72.356 149.1712
143.000000 72.252 149.1930
145.000000 72.187 149.3611
147.500000 72.113 149.4248
150.000000 72.032 149.4501
152.500000 71.958 149.6647
155.000000 71.894 149.7154
157.500000 71.829 149.8019
160.000000 71.745 149.7286
162.500000 71.656 150.0291
165.000000 71.580 149.9910
167.500000 71.514 150.0654
170.000000 71.431 150.2542
172.500000 71.389 150.2910
175.000000 71.327 150.5823
177.500000 71.232 150.6092
180.000000 71.195 150.8017
182.500000 71.146 151.0438
185.000000 71.078 151.1595
187.500000 71.007 151.3309
190.000000 70.957 151.4884
192.500000 70.905 151.6318
195.000000 70.842 151.7231
197.500000 70.769 151.9494
200.000000 70.751 151.9931
203.000000 70.672 152.3006
206.000000 70.610 152.4263
209.000000 70.548 152.6160
212.000000 70.513 152.8216
214.000000 70.466 153.1396
218.000000 70.380 153.2823
220.000000 70.352 153.3456
224.000000 70.284 153.6264
227.000000 70.211 153.8724
230.000000 70.184 154.1387
233.000000 70.138 154.2757
236.000000 70.066 154.5668
240.000000 69.995 154.9574
243.000000 69.961 155.0537
247.000000 69.909 155.3277
250.000000 69.899 155.5233
254.000000 69.790 155.9300
258.000000 69.747 156.1207
262.000000 69.693 156.4330
265.000000 69.667 156.7055
269.000000 69.583 156.9075
272.000000 69.580 157.2119
276.000000 69.513 157.4904
280.000000 69.485 157.9193
285.000000 69.429 158.2219
290.000000 69.365 158.5319
295.000000 69.330 158.9095
300.000000 69.237 159.2549
304.000000 69.212 159.5385
307.000000 69.182 159.8513
311.000000 69.150 160.0029
315.000000 69.140 160.3049
320.000000 69.079 160.6617
325.000000 69.053 161.1619
330.000000 68.989 161.5463
335.000000 68.960 161.8310
340.000000 68.920 162.2408
345.000000 68.883 162.6833
350.000000 68.853 162.9402
355.000000 68.832 163.2470
360.000000 68.813 163.8232
365.000000 68.737 164.1251
370.000000 68.718 164.5158
375.000000 68.679 164.9401
382.000000 68.643 165.2151
387.000000 68.597 165.6797
395.000000 68.587 166.2779
400.000000 68.540 166.6055
406.000000 68.548 166.8276
412.000000 68.541 167.2294
418.000000 68.496 167.7146
425.000000 68.462 168.1533
431.000000 68.435 168.6933
437.000000 68.416 168.9711
444.000000 68.386 169.3374
450.000000 68.395 170.0699
455.000000 68.393 170.3118
462.000000 68.349 170.6367
468.000000 68.368 170.9067
475.000000 68.307 171.5484
482.000000 68.304 171.9877
487.000000 68.300 172.2306
494.000000 68.323 172.6811
500.000000 68.308 173.1219
508.000000 68.282 173.5181
515.000000 68.224 173.9880
522.000000 68.216 174.5091
530.000000 68.277 174.8255
538.000000 68.255 175.3551
545.000000 68.235 176.0288
552.000000 68.252 176.5356
560.000000 68.232 176.9646
570.000000 68.228 177.5008
580.000000 68.262 178.2021
590.000000 68.258 178.6664
600.000000 68.250 179.3583
608.000000 68.240 179.8005
615.000000 68.235 -179.7934
622.000000 68.284 -179.4607
630.000000 68.265 -178.9249
640.000000 68.265 -178.1155
650.000000 68.289 -177.8435
660.000000 68.304 -177.1478
670.000000 68.355 -176.6708
680.000000 68.337 -175.7686
690.000000 68.344 -174.9514
700.000000 68.364 -174.6020
710.000000 68.346 -173.6200
720.000000 68.406 -172.6187
730.000000 68.481 -171.4196
740.000000 68.693 -170.9912
750.000000 68.768 -171.0508
762.000000 68.835 -170.6984
775.000000 68.917 -170.3881
788.000000 68.946 -170.0676
800.000000 69.032 -169.9065
812.000000 69.033 -169.4865
825.000000 69.119 -168.8210
838.000000 69.158 -168.8110
850.000000 69.192 -168.6177
862.000000 69.212 -168.2952
875.000000 69.235 -167.8396
885.000000 69.258 -167.4861
900.000000 69.236 -166.8145
912.000000 69.282 -166.4206
925.000000 69.298 -165.5612
938.000000 69.314 -165.0628
950.000000 69.378 -164.3239
962.000000 69.455 -163.6304
975.000000 69.465 -162.8155
988.000000 69.542 -162.1146
1000.000000 69.612 -161.9591
1015.000000 69.750 -160.5131
1030.000000 69.799 -159.8891
1044.000000 69.958 -159.0934
1060.000000 70.080 -158.3593
1075.000000 70.238 -157.7701
1090.000000 70.319 -157.2318
1106.000000 70.507 -156.8347
1120.000000 70.614 -156.1445
1138.000000 70.795 -155.6226
1150.000000 70.915 -155.3885
1172.000000 71.111 -154.5450
1180.000000 71.179 -154.5018
1206.000000 71.411 -154.0355
1220.000000 71.564 -153.6731
1241.000000 71.757 -153.5555
1250.000000 71.882 -153.1288
1265.000000 71.977 -153.2161
1280.000000 72.141 -152.8930
1315.000000 72.503 -153.0603
1320.000000 72.572 -153.1403
1340.000000 72.753 -153.2548
1360.000000 72.939 -153.3914
1380.000000 73.133 -153.6451
1400.000000 73.259 -153.9307
1430.000000 73.477 -154.2512
1450.000000 73.647 -154.4492
1475.000000 73.824 -154.7078
1500.000000 73.981 -154.9376
1525.000000 74.155 -155.1364
1550.000000 74.330 -155.3007
1575.000000 74.506 -155.7949
1600.000000 74.700 -156.1815
1625.000000 74.875 -156.4837
1650.000000 75.053 -156.9090
1675.000000 75.221 -157.0750
1700.000000 75.391 -157.6738
1725.000000 75.593 -158.1458
1750.000000 75.783 -158.6039
1775.000000 75.972 -159.2134
1800.000000 76.165 -159.9402
1825.000000 76.341 -160.5788
1850.000000 76.520 -161.3769
1875.000000 76.685 -162.2055
1900.000000 76.868 -163.0889
1925.000000 77.028 -164.0359
1950.000000 77.172 -165.1577
1975.000000 77.343 -166.2081
2000.000000 77.418 -167.5689
2030.000000 77.622 -168.8747
2060.000000 77.772 -170.3640
2090.000000 77.901 -171.9991
2120.000000 77.995 -173.6239
2140.000000 78.052 -174.8500
2180.000000 78.144 -177.0389
2200.000000 78.145 -178.1418
2240.000000 78.179 179.7981
2270.000000 78.173 178.4941
2300.000000 78.180 177.1515
2330.000000 78.200 175.8727
2360.000000 78.242 174.3492
2400.000000 78.229 172.3057
2430.000000 78.188 170.7059
2470.000000 78.083 168.7449
2500.000000 77.967 167.4524
2540.000000 77.837 166.1813
2580.000000 77.712 165.0775
2620.000000 77.639 164.0435
2650.000000 77.570 163.1068
2690.000000 77.463 161.9644
2720.000000 77.390 161.3103
2760.000000 77.282 159.9495
2800.000000 77.135 159.0705
2850.000000 76.960 157.7677
2900.000000 76.764 156.8988
2950.000000 76.553 156.0543
3000.000000 76.398 155.6271
3040.000000 76.195 155.2814
3070.000000 76.104 155.1566
3110.000000 75.949 154.8040
3150.000000 75.795 154.7566
3200.000000 75.659 154.7329
3250.000000 75.485 154.9751
3300.000000 75.355 154.9100
3350.000000 75.238 155.1696
3400.000000 75.123 155.0789
3450.000000 74.984 155.1877
3500.000000 74.853 155.1716
3550.000000 74.707 155.6640
3600.000000 74.555 156.2921
3650.000000 74.375 157.2934
3700.000000 74.309 158.2373
3750.000000 74.258 159.3780
3820.000000 74.291 161.0587
3870.000000 74.318 162.2429
3950.000000 74.465 163.2224
4000.000000 74.504 163.8698
4060.000000 74.660 164.0421
4120.000000 74.806 164.5025
4180.000000 74.935 164.2838
4250.000000 75.027 164.1768
4310.000000 75.122 164.0303
4370.000000 75.195 163.4207
4440.000000 75.240 163.1283
4500.000000 75.287 162.6479
4550.000000 75.335 162.2620
4620.000000 75.347 161.4479
4680.000000 75.322 160.8430
4750.000000 75.270 159.9965
4820.000000 75.233 159.5333
4870.000000 75.124 159.2600
4940.000000 75.042 158.9206
5000.000000 74.948 158.7067
5080.000000 74.777 158.8172
5150.000000 74.570 158.7484
5220.000000 74.412 159.3873
5300.000000 74.149 160.2549
5380.000000 73.786 161.8332
5450.000000 73.950 165.8016
5520.000000 74.165 166.4662
5600.000000 74.247 167.6640
5700.000000 74.367 168.6787
5800.000000 74.508 170.0395
5900.000000 74.756 171.3989
6000.000000 75.002 172.3542
6080.000000 75.260 172.4495
6150.000000 75.464 172.5166
6220.000000 75.691 172.1989
6300.000000 75.856 171.7409
6400.000000 76.044 170.5949
6500.000000 76.212 169.4716
6600.000000 76.294 168.5048
6700.000000 76.334 167.5708
6800.000000 76.366 166.7615
6900.000000 76.379 166.3215
7000.000000 76.403 166.0794
7100.000000 76.520 165.8235
7200.000000 76.631 165.7712
7300.000000 76.882 165.4310
7400.000000 77.150 165.1078
7500.000000 77.488 163.6907
7620.000000 77.946 161.5473
7750.000000 78.530 157.3105
7880.000000 78.998 150.8921
8000.000000 79.188 142.5482
8120.000000 78.967 133.1925
8250.000000 78.104 122.9077
8380.000000 76.791 115.2628
8500.000000 75.391 110.7735
8620.000000 73.966 108.6084
8750.000000 72.495 108.6321
8850.000000 71.429 109.2217
9000.000000 69.981 111.9557
9120.000000 68.920 114.5731
9250.000000 67.853 118.6099
9380.000000 67.039 122.8307
9500.000000 66.367 126.7413
9620.000000 65.613 131.5855
9750.000000 64.912 135.9481
9880.000000 64.267 141.7160
10000.000000 63.964 146.9893
10150.000000 63.395 153.9813
10300.000000 63.149 159.5241
10440.000000 62.812 165.9573
10600.000000 62.635 171.0136
10750.000000 62.105 178.3716
10900.000000 62.232 -174.3918
11060.000000 62.030 -166.8385
11200.000000 62.294 -162.5089
11380.000000 62.503 -154.2703
11500.000000 62.883 -150.0611
11720.000000 63.212 -138.4511
11800.000000 63.536 -136.3961
12060.000000 64.822 -126.6639
12200.000000 65.530 -120.4655
12410.000000 66.932 -113.6422
12500.000000 67.682 -111.5395
12650.000000 69.376 -108.3197
12800.000000 71.392 -109.4562
13150.000000 76.470 -137.9197
13200.000000 76.621 -146.5062
13400.000000 74.451 -175.9353
13600.000000 71.121 174.5247
13800.000000 68.556 174.6571
14000.000000 66.676 179.6687
14300.000000 64.567 -170.1744
14500.000000 63.678 -163.9602
14750.000000 62.830 -154.9219
15000.000000 62.159 -145.4903
15250.000000 62.573 -136.5836
15500.000000 63.008 -128.9323
15750.000000 63.654 -121.1769
16000.000000 65.726 -115.8581
16250.000000 67.842 -120.5788
16500.000000 69.465 -141.3075
16750.000000 67.872 -167.5143
17000.000000 64.111 -178.9700
17250.000000 60.941 -177.1505
17500.000000 58.466 -171.7450
17750.000000 55.506 -162.0956
18000.000000 54.001 -152.6678
18250.000000 51.527 -146.9190
18500.000000 50.578 -137.4195
18750.000000 48.289 -120.3882
19000.000000 46.631 -101.7508
19250.000000 46.543 -91.1309
19500.000000 43.202 -81.6543
19750.000000 46.307 -88.5247
20000.000000 42.984 -62.9887
20300.000000 44.040 -41.7861
20600.000000 43.401 -45.9359
20900.000000 39.836 -32.3652
21200.000000 36.338 -37.9073
21400.000000 35.482 -43.4348
21800.000000 28.025 -48.4415
22000.000000 23.623 52.1943
22400.000000 10.117 33.4785
22700.000000 9.530 -92.1035
23000.000000 18.474 -153.9297
23300.000000 17.161 88.4570
23600.000000 26.410 -22.9336

