* Measurement data measured by REW V5.20.13
* Source: Microphone (USB Sound Device        ), MICROPHONE (Master Volume), R, volume: 0,250
* Format: 256k Log Swept Sine, 1 sweep at -12,0 dBFS with no timing reference
* Dated: 18:24:58 14-06-2024
* REW Settings:
*  C-weighting compensation: Off
*  Target level: 75.0 dB
* Note: ; 
* Measurement: QoA Adonis New R
* Smoothing: None
* Frequency Step: 1/48 octave
* Start Frequency: 1.000 Hz
*
* Freq(Hz) SPL(dB) Phase(degrees)
1.000000 85.153 129.8234
1.015000 85.038 129.1859
1.030000 84.921 128.5591
1.044000 84.810 127.9843
1.060000 84.681 127.3404
1.075000 84.558 126.7498
1.090000 84.433 126.1726
1.106000 84.298 125.5704
1.120000 84.176 125.0434
1.138000 84.017 124.3646
1.150000 83.908 123.9123
1.172000 83.705 123.0866
1.180000 83.630 122.7882
1.206000 83.381 121.8294
1.220000 83.244 121.3219
1.241000 83.036 120.5756
1.250000 82.946 120.2621
1.265000 82.794 119.7495
1.280000 82.641 119.2503
1.315000 82.278 118.1468
1.320000 82.226 117.9969
1.340000 82.015 117.4194
1.360000 81.803 116.8794
1.380000 81.590 116.3807
1.400000 81.375 115.9268
1.430000 81.053 115.3379
1.450000 80.837 115.0120
1.475000 80.567 114.6836
1.500000 80.284 114.4273
1.525000 79.989 114.2370
1.550000 79.685 114.1109
1.575000 79.373 114.0470
1.600000 79.058 114.0436
1.625000 78.743 114.0987
1.650000 78.429 114.2105
1.675000 78.120 114.3771
1.700000 77.818 114.5967
1.725000 77.527 114.8673
1.750000 77.250 115.1872
1.775000 76.989 115.5544
1.800000 76.747 115.9671
1.825000 76.527 116.4235
1.850000 76.327 116.9583
1.875000 76.139 117.6447
1.900000 75.962 118.4612
1.925000 75.797 119.3824
1.950000 75.643 120.3826
1.975000 75.501 121.4365
2.000000 75.370 122.5185
2.030000 75.229 123.8180
2.060000 75.105 125.0772
2.090000 74.998 126.2521
2.120000 74.908 127.2984
2.140000 74.858 127.9028
2.180000 74.782 128.8294
2.200000 74.755 129.1262
2.240000 74.742 129.5235
2.270000 74.765 129.6995
2.300000 74.813 129.7700
2.330000 74.881 129.7342
2.360000 74.965 129.5914
2.400000 75.094 129.2333
2.430000 75.198 128.8380
2.470000 75.339 128.1404
2.500000 75.439 127.4883
2.540000 75.560 126.4458
2.580000 75.658 125.1941
2.620000 75.753 123.6627
2.650000 75.826 122.3406
2.690000 75.923 120.3787
2.720000 75.996 118.7800
2.760000 76.092 116.5107
2.800000 76.185 114.1212
2.850000 76.297 111.0263
2.900000 76.402 107.8849
2.950000 76.498 104.7476
3.000000 76.587 101.4362
3.040000 76.653 98.6591
3.070000 76.701 96.5212
3.110000 76.761 93.6216
3.150000 76.818 90.6933
3.200000 76.886 87.0382
3.250000 76.950 83.4437
3.300000 77.011 79.9677
3.350000 77.070 76.5292
3.400000 77.126 73.0695
3.450000 77.179 69.6263
3.500000 77.227 66.2371
3.550000 77.269 62.9396
3.600000 77.305 59.7714
3.650000 77.332 56.7701
3.700000 77.350 53.9311
3.750000 77.361 51.1830
3.820000 77.364 47.5209
3.870000 77.358 45.0659
3.950000 77.338 41.4745
4.000000 77.320 39.4728
4.060000 77.290 37.3427
4.120000 77.242 35.4759
4.180000 77.182 33.8607
4.250000 77.110 32.2869
4.310000 77.054 31.1980
4.370000 77.015 30.3432
4.440000 76.992 29.6815
4.500000 76.976 29.4799
4.550000 76.968 29.5150
4.620000 76.976 29.7753
4.680000 77.005 30.1029
4.750000 77.077 30.4879
4.820000 77.197 30.9099
4.870000 77.310 31.3366
4.940000 77.497 32.0195
5.000000 77.676 32.6004
5.080000 77.929 33.2284
5.150000 78.152 33.5204
5.220000 78.397 33.6358
5.300000 78.699 33.6100
5.380000 79.002 33.4302
5.450000 79.251 33.1580
5.520000 79.472 32.7809
5.600000 79.707 32.1536
5.700000 79.977 31.1584
5.800000 80.207 30.0836
5.900000 80.387 29.0648
6.000000 80.515 27.9831
6.080000 80.588 27.1165
6.150000 80.633 26.4155
6.220000 80.665 25.8158
6.300000 80.679 25.2479
6.400000 80.660 24.6539
6.500000 80.620 24.2261
6.600000 80.580 24.0056
6.700000 80.533 24.0379
6.800000 80.477 24.2768
6.900000 80.429 24.6364
7.000000 80.407 25.0537
7.100000 80.403 25.6202
7.200000 80.414 26.2503
7.300000 80.439 26.8121
7.400000 80.481 27.2416
7.500000 80.543 27.6141
7.620000 80.623 27.9322
7.750000 80.696 28.0371
7.880000 80.765 27.8871
8.000000 80.814 27.6074
8.120000 80.834 27.2498
8.250000 80.829 26.7204
8.380000 80.798 26.1563
8.500000 80.748 25.6916
8.620000 80.674 25.2370
8.750000 80.583 24.7986
8.850000 80.511 24.5331
9.000000 80.393 24.2393
9.120000 80.303 24.0454
9.250000 80.220 23.8573
9.380000 80.146 23.7087
9.500000 80.089 23.5291
9.620000 80.043 23.2716
9.750000 80.007 22.9342
9.880000 79.975 22.5036
10.000000 79.948 21.9991
10.150000 79.918 21.2518
10.300000 79.885 20.4268
10.440000 79.850 19.5709
10.600000 79.808 18.5542
10.750000 79.767 17.6126
10.900000 79.725 16.6696
11.060000 79.690 15.7056
11.200000 79.666 14.8969
11.380000 79.649 13.8842
11.500000 79.649 13.2262
11.720000 79.666 12.0396
11.800000 79.677 11.6063
12.060000 79.731 10.2100
12.200000 79.764 9.4764
12.410000 79.819 8.4126
12.500000 79.843 7.9899
12.650000 79.884 7.3220
12.800000 79.926 6.7128
13.150000 80.037 5.5562
13.200000 80.055 5.4135
13.400000 80.130 4.9056
13.600000 80.208 4.4497
13.800000 80.289 4.0280
14.000000 80.363 3.6301
14.300000 80.458 3.0841
14.500000 80.504 2.7820
14.750000 80.545 2.5097
15.000000 80.570 2.3648
15.250000 80.590 2.3357
15.500000 80.606 2.3563
15.750000 80.621 2.3839
16.000000 80.630 2.3525
16.250000 80.625 2.2535
16.500000 80.604 2.0948
16.750000 80.564 1.9035
17.000000 80.510 1.7088
17.250000 80.448 1.5095
17.500000 80.383 1.2996
17.750000 80.320 1.0385
18.000000 80.259 0.7099
18.250000 80.198 0.2954
18.500000 80.137 -0.1943
18.750000 80.076 -0.7402
19.000000 80.017 -1.3244
19.250000 79.964 -1.9285
19.500000 79.920 -2.5546
19.750000 79.886 -3.2031
20.000000 79.862 -3.8786
20.299999 79.844 -4.7072
20.600000 79.834 -5.5268
20.900000 79.832 -6.3009
21.200001 79.839 -7.0011
21.400000 79.850 -7.4273
21.799999 79.884 -8.2023
22.000000 79.904 -8.5581
22.400000 79.942 -9.2076
22.700001 79.963 -9.6153
23.000000 79.977 -9.9270
23.299999 79.987 -10.1421
23.600000 79.996 -10.2862
24.000000 80.005 -10.4295
24.299999 80.006 -10.5435
24.700001 79.992 -10.7221
25.000000 79.968 -10.8659
25.400000 79.921 -11.0580
25.799999 79.864 -11.2668
26.200001 79.800 -11.5310
26.500000 79.749 -11.7794
26.900000 79.675 -12.1720
27.200001 79.619 -12.5008
27.600000 79.547 -12.9747
28.000000 79.482 -13.4896
28.500000 79.414 -14.1842
29.000000 79.362 -14.8988
29.500000 79.328 -15.6027
30.000000 79.308 -16.2918
30.400000 79.296 -16.8167
30.700001 79.287 -17.1730
31.100000 79.274 -17.5712
31.500000 79.263 -17.8829
32.000000 79.254 -18.2038
32.500000 79.241 -18.5077
33.000000 79.213 -18.7917
33.500000 79.172 -19.0270
34.000000 79.123 -19.2344
34.500000 79.070 -19.4672
35.000000 79.011 -19.7451
35.500000 78.947 -20.0576
36.000000 78.883 -20.4027
36.500000 78.821 -20.7835
37.000000 78.764 -21.1871
37.500000 78.712 -21.5994
38.200001 78.648 -22.1885
38.700001 78.603 -22.5881
39.500000 78.537 -23.0796
40.000000 78.506 -23.3235
40.599998 78.473 -23.6353
41.200001 78.428 -23.9501
41.799999 78.374 -24.1988
42.500000 78.313 -24.4366
43.099998 78.261 -24.6729
43.700001 78.203 -24.9242
44.400002 78.138 -25.1816
45.000000 78.094 -25.4017
45.500000 78.064 -25.6422
46.200001 78.015 -26.0560
46.799999 77.959 -26.3452
47.500000 77.904 -26.5128
48.200001 77.878 -26.7340
48.700001 77.854 -27.0300
49.400002 77.782 -27.4496
50.000000 77.707 -27.6102
50.799999 77.642 -27.7171
51.500000 77.600 -28.0228
52.200001 77.535 -28.4480
53.000000 77.439 -28.7895
53.799999 77.361 -28.9567
54.500000 77.312 -29.0998
55.200001 77.266 -29.2988
56.000000 77.200 -29.5053
57.000000 77.112 -29.6151
58.000000 77.029 -29.6944
59.000000 76.948 -29.7784
60.000000 76.867 -29.9194
60.799999 76.812 -29.9522
61.500000 76.793 -30.0621
62.200001 76.767 -30.3304
63.000000 76.724 -30.4764
64.000000 76.725 -30.6778
65.000000 76.684 -31.0529
66.000000 76.672 -31.1603
67.000000 76.626 -31.7294
68.000000 76.546 -31.6632
69.000000 76.544 -32.1298
70.000000 76.395 -32.5801
71.000000 76.348 -32.3589
72.000000 76.289 -33.0249
73.000000 76.162 -33.0300
74.000000 76.153 -33.1893
75.000000 76.062 -33.7548
76.199997 75.975 -33.7895
77.500000 75.902 -34.1020
78.800003 75.825 -34.2934
80.000000 75.726 -34.3018
81.199997 75.685 -34.4458
82.500000 75.557 -34.6935
83.800003 75.500 -34.8108
85.000000 75.414 -35.1406
86.199997 75.339 -35.3009
87.500000 75.268 -35.3306
88.500000 75.227 -35.4571
90.000000 75.125 -35.6536
91.199997 75.029 -35.7657
92.500000 74.952 -35.7569
93.800003 74.873 -36.0015
95.000000 74.815 -35.9958
96.199997 74.749 -36.1411
97.500000 74.699 -36.0271
98.800003 74.598 -36.0352
100.000000 74.591 -35.7454
101.500000 74.438 -36.2805
103.000000 74.357 -35.6041
104.400002 74.320 -35.6910
106.000000 74.231 -35.7680
107.500000 74.199 -35.6922
109.000000 74.131 -35.7448
110.599998 74.097 -35.8998
112.000000 74.020 -35.9101
113.800003 73.968 -36.0435
115.000000 73.891 -36.1106
117.199997 73.839 -36.3258
118.000000 73.798 -36.3959
120.599998 73.684 -36.4223
122.000000 73.614 -36.4790
124.099998 73.522 -36.4679
125.000000 73.474 -36.4171
126.500000 73.429 -36.4082
128.000000 73.368 -36.5607
131.500000 73.222 -36.4786
132.000000 73.205 -36.4469
134.000000 73.120 -36.3390
136.000000 73.034 -36.4241
138.000000 72.949 -36.3951
140.000000 72.885 -36.2479
143.000000 72.804 -36.1929
145.000000 72.718 -36.2252
147.500000 72.639 -36.1743
150.000000 72.567 -36.2886
152.500000 72.475 -36.1427
155.000000 72.389 -36.1634
157.500000 72.310 -35.9555
160.000000 72.221 -35.8431
162.500000 72.153 -35.8706
165.000000 72.064 -35.6975
167.500000 72.004 -35.7277
170.000000 71.929 -35.5985
172.500000 71.858 -35.5761
175.000000 71.785 -35.4759
177.500000 71.698 -35.3297
180.000000 71.625 -35.4084
182.500000 71.541 -35.3153
185.000000 71.472 -35.1964
187.500000 71.404 -35.1089
190.000000 71.333 -34.9973
192.500000 71.270 -34.9223
195.000000 71.199 -34.6739
197.500000 71.123 -34.6055
200.000000 71.028 -34.5334
203.000000 70.955 -34.3020
206.000000 70.901 -33.9802
209.000000 70.807 -33.7800
212.000000 70.724 -33.5801
214.000000 70.683 -33.4542
218.000000 70.620 -32.9812
220.000000 70.577 -32.8071
224.000000 70.524 -32.4892
227.000000 70.513 -32.4012
230.000000 70.462 -32.2111
233.000000 70.375 -32.3350
236.000000 70.339 -32.2658
240.000000 70.222 -32.1181
243.000000 70.160 -31.8383
247.000000 70.102 -31.8043
250.000000 70.016 -31.5628
254.000000 69.921 -31.3728
258.000000 69.854 -31.1894
262.000000 69.822 -30.9901
265.000000 69.717 -30.8133
269.000000 69.653 -30.4838
272.000000 69.601 -30.3357
276.000000 69.530 -30.0089
280.000000 69.470 -29.8139
285.000000 69.369 -29.5387
290.000000 69.279 -29.1771
295.000000 69.222 -29.1321
300.000000 69.134 -28.6426
304.000000 69.056 -28.3220
307.000000 69.013 -27.9751
311.000000 68.943 -27.7003
315.000000 68.899 -27.6636
320.000000 68.848 -27.3050
325.000000 68.772 -26.8746
330.000000 68.691 -26.4022
335.000000 68.618 -26.2329
340.000000 68.581 -25.9661
345.000000 68.503 -25.5759
350.000000 68.418 -25.0894
355.000000 68.361 -25.0442
360.000000 68.281 -24.5624
365.000000 68.238 -24.2818
370.000000 68.183 -23.9405
375.000000 68.137 -23.7709
382.000000 68.071 -23.0601
387.000000 67.973 -22.7216
395.000000 67.921 -22.3309
400.000000 67.876 -21.9631
406.000000 67.818 -21.6056
412.000000 67.759 -20.9750
418.000000 67.676 -20.6885
425.000000 67.615 -20.0284
431.000000 67.547 -19.8399
437.000000 67.497 -19.4915
444.000000 67.438 -18.8656
450.000000 67.382 -18.5180
455.000000 67.353 -18.2113
462.000000 67.260 -17.8474
468.000000 67.223 -17.2338
475.000000 67.168 -16.8939
482.000000 67.115 -16.3972
487.000000 67.074 -16.0016
494.000000 66.975 -15.3495
500.000000 66.927 -14.9498
508.000000 66.875 -14.0419
515.000000 66.843 -13.5425
522.000000 66.799 -12.9234
530.000000 66.685 -11.8112
538.000000 66.779 -10.6924
545.000000 66.944 -10.4145
552.000000 66.945 -11.1636
560.000000 66.817 -10.9822
570.000000 66.693 -10.7331
580.000000 66.609 -9.9816
590.000000 66.473 -9.3925
600.000000 66.434 -8.4097
608.000000 66.317 -7.9949
615.000000 66.285 -7.4451
622.000000 66.261 -6.5710
630.000000 66.201 -5.9987
640.000000 66.167 -5.1488
650.000000 66.090 -4.0297
660.000000 66.037 -3.3511
670.000000 66.067 -2.0779
680.000000 66.037 -1.2568
690.000000 65.956 -0.2446
700.000000 65.991 0.9195
710.000000 65.916 1.8228
720.000000 66.012 2.8581
730.000000 65.996 3.9377
740.000000 66.013 5.0675
750.000000 66.123 5.5441
762.000000 66.215 6.8837
775.000000 66.291 7.5800
788.000000 66.390 8.2285
800.000000 66.515 8.5179
812.000000 66.549 8.8778
825.000000 66.536 9.3019
838.000000 66.618 9.5889
850.000000 66.610 10.1125
862.000000 66.630 10.5132
875.000000 66.610 10.9273
885.000000 66.692 11.5441
900.000000 66.643 12.1203
912.000000 66.684 12.7586
925.000000 66.734 13.3119
938.000000 66.760 13.6855
950.000000 66.812 14.2643
962.000000 66.788 15.2605
975.000000 66.872 15.8709
988.000000 66.885 16.3988
1000.000000 67.097 17.2279
1015.000000 66.977 17.2483
1030.000000 67.002 18.3668
1044.000000 67.068 18.9508
1060.000000 67.105 19.1341
1075.000000 67.187 19.6846
1090.000000 67.279 20.3674
1106.000000 67.342 20.9076
1120.000000 67.413 20.7768
1138.000000 67.520 21.4480
1150.000000 67.538 21.6316
1172.000000 67.667 22.4053
1180.000000 67.645 22.2790
1206.000000 67.718 22.9951
1220.000000 67.739 23.3338
1241.000000 67.850 23.7894
1250.000000 67.890 23.5022
1265.000000 67.914 23.8922
1280.000000 67.980 24.0325
1315.000000 68.037 24.7876
1320.000000 68.090 24.6955
1340.000000 68.141 24.8445
1360.000000 68.179 25.2805
1380.000000 68.228 25.4508
1400.000000 68.239 25.8168
1430.000000 68.327 26.4088
1450.000000 68.312 26.4279
1475.000000 68.384 26.7360
1500.000000 68.445 27.3758
1525.000000 68.464 27.9494
1550.000000 68.500 28.1679
1575.000000 68.520 28.2707
1600.000000 68.616 28.7955
1625.000000 68.585 29.0159
1650.000000 68.610 29.7081
1675.000000 68.637 29.9676
1700.000000 68.644 30.6826
1725.000000 68.757 31.5927
1750.000000 68.782 31.9645
1775.000000 68.856 32.2945
1800.000000 68.856 33.1719
1825.000000 68.927 33.4868
1850.000000 69.033 34.5917
1875.000000 69.114 35.1461
1900.000000 69.139 35.5508
1925.000000 69.235 36.1172
1950.000000 69.336 36.7231
1975.000000 69.428 37.1601
2000.000000 69.444 36.9217
2030.000000 69.628 38.2032
2060.000000 69.757 38.6615
2090.000000 69.869 39.4258
2120.000000 70.013 39.9215
2140.000000 70.074 40.1057
2180.000000 70.295 40.6700
2200.000000 70.370 40.7668
2240.000000 70.568 41.2023
2270.000000 70.674 41.6057
2300.000000 70.793 41.7016
2330.000000 70.938 42.3639
2360.000000 71.084 42.6652
2400.000000 71.342 43.2760
2430.000000 71.657 44.1000
2470.000000 71.993 43.8859
2500.000000 72.309 43.3075
2540.000000 72.652 41.8592
2580.000000 72.884 40.4193
2620.000000 73.110 38.7707
2650.000000 73.197 37.5779
2690.000000 73.370 35.8634
2720.000000 73.471 34.9486
2760.000000 73.572 32.9770
2800.000000 73.615 31.4283
2850.000000 73.618 29.3640
2900.000000 73.637 26.8957
2950.000000 73.597 24.7661
3000.000000 73.567 22.6778
3040.000000 73.361 21.3941
3070.000000 73.274 20.2218
3110.000000 73.091 19.0121
3150.000000 72.944 17.8387
3200.000000 72.707 16.5108
3250.000000 72.445 15.7806
3300.000000 72.156 14.7687
3350.000000 71.866 14.0488
3400.000000 71.599 13.9389
3450.000000 71.226 13.8143
3500.000000 70.912 14.0673
3550.000000 70.586 15.0388
3600.000000 70.315 15.8453
3650.000000 70.005 17.1064
3700.000000 69.784 18.1680
3750.000000 69.515 19.4984
3820.000000 69.242 22.1375
3870.000000 69.101 24.0492
3950.000000 68.833 28.7034
4000.000000 69.041 31.5088
4060.000000 68.790 34.6657
4120.000000 68.892 38.3351
4180.000000 69.106 42.0843
4250.000000 69.550 45.7184
4310.000000 69.976 48.0824
4370.000000 70.481 49.7976
4440.000000 71.169 50.8599
4500.000000 71.665 51.2289
4550.000000 72.117 50.6806
4620.000000 72.598 49.7037
4680.000000 73.056 48.3088
4750.000000 73.445 46.4882
4820.000000 73.741 44.1443
4870.000000 73.913 42.4463
4940.000000 74.115 39.6834
5000.000000 74.113 37.5411
5080.000000 74.197 34.8787
5150.000000 74.183 32.5466
5220.000000 74.136 30.2703
5300.000000 73.986 27.8077
5380.000000 73.844 25.8937
5450.000000 73.603 24.6066
5520.000000 73.309 23.1116
5600.000000 73.118 21.7624
5700.000000 72.698 20.9956
5800.000000 72.222 20.4843
5900.000000 71.867 20.5332
6000.000000 71.632 20.8829
6080.000000 71.311 22.4677
6150.000000 71.123 23.3078
6220.000000 70.912 24.3644
6300.000000 70.780 25.5436
6400.000000 70.697 27.6602
6500.000000 70.492 29.3974
6600.000000 70.486 31.2665
6700.000000 70.515 33.0852
6800.000000 70.579 35.5626
6900.000000 70.782 36.9667
7000.000000 70.871 38.6845
7100.000000 71.296 40.5076
7200.000000 71.656 41.6419
7300.000000 72.035 42.2903
7400.000000 72.536 43.1702
7500.000000 73.163 41.8814
7620.000000 73.865 39.9503
7750.000000 74.611 35.2937
7880.000000 75.161 28.8554
8000.000000 75.407 21.5713
8120.000000 75.177 13.2303
8250.000000 74.576 5.8478
8380.000000 73.737 0.3835
8500.000000 72.831 -2.8039
8620.000000 71.977 -4.2749
8750.000000 71.155 -4.0300
8850.000000 70.639 -3.1716
9000.000000 69.943 -1.1728
9120.000000 69.613 0.7281
9250.000000 69.497 2.6236
9380.000000 69.481 4.8444
9500.000000 69.643 5.7582
9620.000000 69.813 5.6953
9750.000000 69.977 4.6997
9880.000000 70.284 3.0041
10000.000000 70.495 0.2723
10150.000000 70.422 -3.0383
10300.000000 70.417 -6.9634
10440.000000 70.161 -9.5401
10600.000000 69.931 -12.3594
10750.000000 69.757 -15.3377
10900.000000 69.593 -17.7035
11060.000000 69.535 -21.0872
11200.000000 69.428 -24.2637
11380.000000 69.302 -29.8968
11500.000000 69.170 -33.9686
11720.000000 68.654 -42.5759
11800.000000 68.440 -45.3101
12060.000000 67.308 -54.7032
12200.000000 66.557 -59.2310
12410.000000 65.348 -65.3183
12500.000000 64.943 -65.1234
12650.000000 64.003 -69.2686
12800.000000 63.505 -70.4050
13150.000000 62.046 -77.3220
13200.000000 61.886 -76.9832
13400.000000 61.496 -82.7134
13600.000000 60.972 -91.8656
13800.000000 59.996 -100.8087
14000.000000 58.436 -112.7329
14300.000000 55.912 -126.2029
14500.000000 54.308 -132.6099
14750.000000 50.042 -131.9594
15000.000000 48.662 -132.1772
15250.000000 44.469 -133.8487
15500.000000 44.128 -126.1754
15750.000000 42.038 -98.5083
16000.000000 45.912 -80.5272
16250.000000 44.363 -107.8475
16500.000000 44.622 -108.7324
16750.000000 45.396 -89.7860
17000.000000 43.474 -106.0922
17250.000000 44.396 -103.5141
17500.000000 45.016 -105.2726
17750.000000 46.486 -114.8393
18000.000000 48.297 -112.0048
18250.000000 50.000 -132.3656
18500.000000 51.410 -149.6777
18750.000000 49.871 179.2029
19000.000000 49.036 161.2652
19250.000000 48.747 144.9777
19500.000000 47.369 109.0820
19750.000000 45.213 77.9529
20000.000000 41.526 78.5296
20300.000000 39.346 36.6039
20600.000000 35.191 10.7201
20900.000000 28.246 -21.8228
21200.000000 22.332 -11.6284
21400.000000 16.185 -124.6250
21800.000000 15.780 -127.4141
22000.000000 12.051 -1.4297
22400.000000 11.620 147.0391
22700.000000 13.222 151.9219
23000.000000 9.654 -80.9453
23300.000000 9.834 -152.3594
23600.000000 27.764 -2.4453

