* Measurement data measured by REW V5.20.13
* Source: Microphone (USB Sound Device        ), MICROPHONE (Master Volume), L, volume: 0,250
* Format: 256k Log Swept Sine, 1 sweep at -12,0 dBFS with no timing reference
* Dated: 22:13:04 13-12-2023
* REW Settings:
*  C-weighting compensation: Off
*  Target level: 75.0 dB
* Note: ; 
* Measurement: Shortbus Glamdring wide tip L
* Smoothing: None
* Frequency Step: 1/48 octave
* Start Frequency: 1.000 Hz
*
* Freq(Hz) SPL(dB) Phase(degrees)
1.000000 75.973 122.4304
1.015000 75.783 121.4660
1.030000 75.585 120.4825
1.044000 75.394 119.5460
1.060000 75.166 118.4521
1.075000 74.942 117.4021
1.090000 74.710 116.3267
1.106000 74.450 115.1698
1.120000 74.208 114.2538
1.138000 73.879 113.2164
1.150000 73.648 112.5977
1.172000 73.204 111.5788
1.180000 73.036 111.2360
1.206000 72.474 110.1776
1.220000 72.160 109.6181
1.241000 71.680 108.7510
1.250000 71.470 108.3582
1.265000 71.119 107.6599
1.280000 70.764 106.8911
1.315000 69.932 104.7170
1.320000 69.813 104.3528
1.340000 69.341 102.7338
1.360000 68.874 100.8223
1.380000 68.417 98.5735
1.400000 67.972 95.9429
1.430000 67.332 91.1838
1.450000 66.930 87.4038
1.475000 66.452 81.8828
1.500000 65.950 75.1782
1.525000 65.421 67.3806
1.550000 64.874 58.6701
1.575000 64.321 49.2268
1.600000 63.773 39.2309
1.625000 63.241 28.8623
1.650000 62.735 18.3012
1.675000 62.267 7.7276
1.700000 61.847 -2.6784
1.725000 61.487 -12.7367
1.750000 61.197 -22.2672
1.775000 60.987 -31.0899
1.800000 60.870 -39.0246
1.825000 60.856 -45.8913
1.850000 60.964 -51.6996
1.875000 61.211 -56.8429
1.900000 61.579 -61.3955
1.925000 62.049 -65.4143
1.950000 62.604 -68.9565
1.975000 63.224 -72.0792
2.000000 63.891 -74.8394
2.030000 64.727 -77.7536
2.060000 65.573 -80.3266
2.090000 66.395 -82.6572
2.120000 67.162 -84.8439
2.140000 67.627 -86.2705
2.180000 68.402 -89.1804
2.200000 68.694 -90.7199
2.240000 69.163 -93.5704
2.270000 69.448 -95.3956
2.300000 69.685 -96.9833
2.330000 69.878 -98.3607
2.360000 70.034 -99.5554
2.400000 70.195 -100.9113
2.430000 70.288 -101.7860
2.470000 70.386 -102.8148
2.500000 70.449 -103.5188
2.540000 70.530 -104.4193
2.580000 70.615 -105.3190
2.620000 70.662 -106.1133
2.650000 70.671 -106.6182
2.690000 70.655 -107.1676
2.720000 70.625 -107.4850
2.760000 70.571 -107.7796
2.800000 70.507 -107.9240
2.850000 70.426 -107.8885
2.900000 70.360 -107.6072
2.950000 70.320 -107.0575
3.000000 70.268 -106.1208
3.040000 70.217 -105.1255
3.070000 70.177 -104.2664
3.110000 70.128 -103.0083
3.150000 70.089 -101.6647
3.200000 70.064 -99.9364
3.250000 70.077 -98.2395
3.300000 70.142 -96.6643
3.350000 70.261 -95.0577
3.400000 70.426 -93.3247
3.450000 70.626 -91.5459
3.500000 70.852 -89.8024
3.550000 71.093 -88.1748
3.600000 71.340 -86.7441
3.650000 71.583 -85.5912
3.700000 71.825 -84.7525
3.750000 72.089 -84.1469
3.820000 72.479 -83.6295
3.870000 72.761 -83.4566
3.950000 73.193 -83.4403
4.000000 73.437 -83.5475
4.060000 73.695 -83.7792
4.120000 73.930 -84.2407
4.180000 74.147 -84.8934
4.250000 74.374 -85.8099
4.310000 74.545 -86.6540
4.370000 74.693 -87.4836
4.440000 74.834 -88.4094
4.500000 74.926 -89.2733
4.550000 74.984 -90.0233
4.620000 75.043 -91.0729
4.680000 75.076 -91.9293
4.750000 75.101 -92.8224
4.820000 75.106 -93.5973
4.870000 75.092 -94.1160
4.940000 75.056 -94.7801
5.000000 75.015 -95.2785
5.080000 74.959 -95.8194
5.150000 74.918 -96.1543
5.220000 74.871 -96.3370
5.300000 74.811 -96.3965
5.380000 74.757 -96.3519
5.450000 74.724 -96.2732
5.520000 74.713 -96.1857
5.600000 74.721 -95.9791
5.700000 74.755 -95.6338
5.800000 74.813 -95.3531
5.900000 74.897 -95.2870
6.000000 75.014 -95.3559
6.080000 75.124 -95.5080
6.150000 75.223 -95.7315
6.220000 75.317 -96.0555
6.300000 75.422 -96.5704
6.400000 75.558 -97.4070
6.500000 75.688 -98.3894
6.600000 75.799 -99.4447
6.700000 75.889 -100.6124
6.800000 75.965 -101.8875
6.900000 76.027 -103.1769
7.000000 76.074 -104.4035
7.100000 76.102 -105.6243
7.200000 76.118 -106.8154
7.300000 76.132 -107.9240
7.400000 76.144 -108.9171
7.500000 76.151 -109.8204
7.620000 76.162 -110.8024
7.750000 76.195 -111.7482
7.880000 76.244 -112.5420
8.000000 76.305 -113.2159
8.120000 76.386 -113.8999
8.250000 76.498 -114.6103
8.380000 76.625 -115.3434
8.500000 76.748 -116.0915
8.620000 76.884 -116.8906
8.750000 77.032 -117.7966
8.850000 77.140 -118.5196
9.000000 77.300 -119.6630
9.120000 77.421 -120.5762
9.250000 77.541 -121.5302
9.380000 77.652 -122.4678
9.500000 77.748 -123.2820
9.620000 77.839 -124.0255
9.750000 77.931 -124.7672
9.880000 78.021 -125.4426
10.000000 78.104 -125.9996
10.150000 78.206 -126.6167
10.300000 78.311 -127.1864
10.440000 78.410 -127.6692
10.600000 78.524 -128.1894
10.750000 78.630 -128.6711
10.900000 78.733 -129.1386
11.060000 78.838 -129.6312
11.200000 78.924 -130.0580
11.380000 79.027 -130.5878
11.500000 79.090 -130.9270
11.720000 79.196 -131.5203
11.800000 79.232 -131.7246
12.060000 79.340 -132.3555
12.200000 79.393 -132.6850
12.410000 79.468 -133.1699
12.500000 79.498 -133.3826
12.650000 79.546 -133.7410
12.800000 79.589 -134.1066
13.150000 79.671 -134.9963
13.200000 79.681 -135.1249
13.400000 79.715 -135.6431
13.600000 79.744 -136.1606
13.800000 79.768 -136.6731
14.000000 79.791 -137.1911
14.300000 79.826 -137.9877
14.500000 79.849 -138.5509
14.750000 79.879 -139.2989
15.000000 79.907 -140.0963
15.250000 79.932 -140.9270
15.500000 79.954 -141.7654
15.750000 79.977 -142.5975
16.000000 80.002 -143.4072
16.250000 80.034 -144.2012
16.500000 80.072 -144.9853
16.750000 80.116 -145.7714
17.000000 80.163 -146.5604
17.250000 80.213 -147.3451
17.500000 80.261 -148.1142
17.750000 80.308 -148.8468
18.000000 80.355 -149.5361
18.250000 80.401 -150.1753
18.500000 80.448 -150.7689
18.750000 80.496 -151.3231
19.000000 80.543 -151.8440
19.250000 80.588 -152.3377
19.500000 80.631 -152.8058
19.750000 80.671 -153.2502
20.000000 80.708 -153.6744
20.299999 80.748 -154.1648
20.600000 80.782 -154.6426
20.900000 80.810 -155.1140
21.200001 80.830 -155.5791
21.400000 80.840 -155.8828
21.799999 80.854 -156.4750
22.000000 80.859 -156.7672
22.400000 80.868 -157.3611
22.700001 80.874 -157.8337
23.000000 80.879 -158.3404
23.299999 80.881 -158.8751
23.600000 80.880 -159.4239
24.000000 80.876 -160.1543
24.299999 80.875 -160.6911
24.700001 80.879 -161.3968
25.000000 80.887 -161.9272
25.400000 80.903 -162.6416
25.799999 80.922 -163.3535
26.200001 80.942 -164.0422
26.500000 80.957 -164.5336
26.900000 80.980 -165.1510
27.200001 80.998 -165.5879
27.600000 81.024 -166.1429
28.000000 81.049 -166.6798
28.500000 81.074 -167.3444
29.000000 81.086 -167.9965
29.500000 81.081 -168.5925
30.000000 81.066 -169.0897
30.400000 81.055 -169.4299
30.700001 81.051 -169.6768
31.100000 81.048 -170.0312
31.500000 81.046 -170.4322
32.000000 81.041 -170.9903
32.500000 81.030 -171.5804
33.000000 81.017 -172.1782
33.500000 81.004 -172.7712
34.000000 80.992 -173.3467
34.500000 80.984 -173.9004
35.000000 80.981 -174.4414
35.500000 80.979 -174.9777
36.000000 80.977 -175.5018
36.500000 80.972 -175.9993
37.000000 80.964 -176.4613
37.500000 80.956 -176.8884
38.200001 80.945 -177.4562
38.700001 80.937 -177.8741
39.500000 80.913 -178.5663
40.000000 80.890 -178.9622
40.599998 80.868 -179.3882
41.200001 80.856 -179.8387
41.799999 80.843 179.6425
42.500000 80.817 179.0343
43.099998 80.793 178.5881
43.700001 80.778 178.1810
44.400002 80.769 177.6772
45.000000 80.757 177.2125
45.500000 80.741 176.8392
46.200001 80.716 176.3801
46.799999 80.702 176.0131
47.500000 80.687 175.5287
48.200001 80.659 175.0174
48.700001 80.634 174.7020
49.400002 80.606 174.3307
50.000000 80.593 173.9920
50.799999 80.572 173.4631
51.500000 80.545 172.9960
52.200001 80.513 172.5629
53.000000 80.476 172.1147
53.799999 80.442 171.6944
54.500000 80.415 171.3010
55.200001 80.382 170.9085
56.000000 80.345 170.5079
57.000000 80.307 169.9975
58.000000 80.271 169.5062
59.000000 80.239 168.9680
60.000000 80.183 168.4676
60.799999 80.147 168.2254
61.500000 80.130 167.9579
62.200001 80.106 167.6141
63.000000 80.068 167.2482
64.000000 80.020 166.7978
65.000000 79.967 166.4221
66.000000 79.936 166.0729
67.000000 79.900 165.5740
68.000000 79.846 165.2055
69.000000 79.814 164.9146
70.000000 79.781 164.4542
71.000000 79.719 164.0815
72.000000 79.682 163.8299
73.000000 79.646 163.3508
74.000000 79.573 162.9940
75.000000 79.535 162.8493
76.199997 79.506 162.3766
77.500000 79.436 161.9455
78.800003 79.381 161.5895
80.000000 79.321 161.2648
81.199997 79.273 160.9699
82.500000 79.221 160.6090
83.800003 79.170 160.2056
85.000000 79.111 159.9036
86.199997 79.061 159.6227
87.500000 79.003 159.3753
88.500000 78.967 159.1296
90.000000 78.882 158.7869
91.199997 78.838 158.6453
92.500000 78.786 158.2896
93.800003 78.730 158.1161
95.000000 78.688 157.8219
96.199997 78.639 157.5966
97.500000 78.579 157.2730
98.800003 78.517 156.9968
100.000000 78.433 156.8687
101.500000 78.421 156.7239
103.000000 78.341 156.2722
104.400002 78.293 156.0403
106.000000 78.226 155.7820
107.500000 78.170 155.6140
109.000000 78.113 155.3995
110.599998 78.041 155.1596
112.000000 77.978 155.0590
113.800003 77.909 154.7638
115.000000 77.854 154.6876
117.199997 77.780 154.4058
118.000000 77.747 154.3050
120.599998 77.640 154.0415
122.000000 77.584 153.8641
124.099998 77.507 153.6886
125.000000 77.473 153.6584
126.500000 77.423 153.4960
128.000000 77.365 153.4241
131.500000 77.229 153.1141
132.000000 77.208 153.0870
134.000000 77.138 152.9399
136.000000 77.070 152.8065
138.000000 76.999 152.7543
140.000000 76.924 152.6516
143.000000 76.827 152.5096
145.000000 76.746 152.3433
147.500000 76.664 152.2656
150.000000 76.588 152.2202
152.500000 76.499 152.1260
155.000000 76.409 152.0596
157.500000 76.338 152.0381
160.000000 76.252 152.0129
162.500000 76.166 151.9547
165.000000 76.092 151.9480
167.500000 76.023 151.9008
170.000000 75.937 151.9759
172.500000 75.856 151.9189
175.000000 75.790 151.9261
177.500000 75.721 152.0225
180.000000 75.644 152.0917
182.500000 75.569 152.1374
185.000000 75.500 152.1412
187.500000 75.437 152.3243
190.000000 75.376 152.3309
192.500000 75.309 152.4346
195.000000 75.252 152.5374
197.500000 75.187 152.6767
200.000000 75.128 152.7176
203.000000 75.065 152.7546
206.000000 75.008 152.8936
209.000000 74.944 152.9407
212.000000 74.875 152.9817
214.000000 74.834 152.9900
218.000000 74.754 153.1115
220.000000 74.705 153.1422
224.000000 74.613 153.3907
227.000000 74.537 153.4769
230.000000 74.469 153.5991
233.000000 74.398 153.6873
236.000000 74.325 153.9633
240.000000 74.243 154.2417
243.000000 74.180 154.3903
247.000000 74.122 154.7990
250.000000 74.071 154.9816
254.000000 74.009 155.4229
258.000000 73.973 155.8523
262.000000 73.965 155.8864
265.000000 73.933 155.9683
269.000000 73.885 156.1476
272.000000 73.834 156.0541
276.000000 73.770 156.1968
280.000000 73.727 156.1732
285.000000 73.639 156.4245
290.000000 73.557 156.6216
295.000000 73.484 156.8004
300.000000 73.389 157.0619
304.000000 73.339 157.3010
307.000000 73.289 157.3597
311.000000 73.238 157.5720
315.000000 73.203 157.8813
320.000000 73.115 158.0260
325.000000 73.075 158.2911
330.000000 72.989 158.6252
335.000000 72.937 158.8635
340.000000 72.875 159.2661
345.000000 72.815 159.5400
350.000000 72.739 159.7287
355.000000 72.689 160.1754
360.000000 72.648 160.4658
365.000000 72.589 160.7294
370.000000 72.528 161.0638
375.000000 72.484 161.2764
382.000000 72.413 161.7978
387.000000 72.358 162.1938
395.000000 72.287 162.8050
400.000000 72.256 163.1553
406.000000 72.210 163.6591
412.000000 72.157 164.2008
418.000000 72.145 164.6306
425.000000 72.124 164.9044
431.000000 72.121 165.2752
437.000000 72.062 165.4630
444.000000 72.027 165.7573
450.000000 71.980 166.1710
455.000000 71.948 166.4196
462.000000 71.922 166.7088
468.000000 71.859 167.0388
475.000000 71.820 167.4636
482.000000 71.792 167.8798
487.000000 71.728 168.1036
494.000000 71.713 168.6807
500.000000 71.689 168.7579
508.000000 71.671 169.5026
515.000000 71.600 169.7803
522.000000 71.587 170.1337
530.000000 71.542 170.7047
538.000000 71.512 171.1527
545.000000 71.474 171.4968
552.000000 71.463 171.9351
560.000000 71.438 172.3416
570.000000 71.383 173.0095
580.000000 71.328 173.6548
590.000000 71.332 174.1676
600.000000 71.312 174.8360
608.000000 71.268 175.1618
615.000000 71.254 175.6599
622.000000 71.260 176.0798
630.000000 71.238 176.5342
640.000000 71.204 177.0117
650.000000 71.197 177.5302
660.000000 71.172 178.1682
670.000000 71.157 178.6979
680.000000 71.147 179.3045
690.000000 71.137 -179.9575
700.000000 71.123 -179.4388
710.000000 71.112 -178.9313
720.000000 71.112 -178.3644
730.000000 71.110 -177.7762
740.000000 71.114 -177.0929
750.000000 71.096 -176.6234
762.000000 71.120 -176.0234
775.000000 71.109 -175.2589
788.000000 71.121 -174.4642
800.000000 71.144 -174.0192
812.000000 71.140 -173.0793
825.000000 71.220 -172.5049
838.000000 71.217 -171.5770
850.000000 71.240 -171.0959
862.000000 71.268 -170.4093
875.000000 71.329 -169.6807
885.000000 71.371 -169.0638
900.000000 71.399 -168.3048
912.000000 71.433 -167.9474
925.000000 71.493 -167.2982
938.000000 71.560 -166.6304
950.000000 71.630 -166.2491
962.000000 71.691 -165.5841
975.000000 71.753 -165.0059
988.000000 71.825 -164.4645
1000.000000 71.808 -164.5039
1015.000000 71.972 -163.5708
1030.000000 72.053 -163.1718
1044.000000 72.143 -162.7076
1060.000000 72.219 -162.3478
1075.000000 72.341 -161.9500
1090.000000 72.429 -161.6130
1106.000000 72.514 -161.2506
1120.000000 72.590 -160.9906
1138.000000 72.715 -160.7294
1150.000000 72.782 -160.5466
1172.000000 72.903 -160.4914
1180.000000 72.962 -160.2912
1206.000000 73.079 -160.3633
1220.000000 73.144 -160.1988
1241.000000 73.271 -160.3374
1250.000000 73.324 -160.1900
1265.000000 73.408 -160.1786
1280.000000 73.444 -160.1889
1315.000000 73.581 -160.1708
1320.000000 73.638 -160.1041
1340.000000 73.701 -160.2382
1360.000000 73.761 -160.3235
1380.000000 73.843 -160.2911
1400.000000 73.890 -160.4806
1430.000000 74.010 -160.5628
1450.000000 74.073 -160.7057
1475.000000 74.151 -160.6859
1500.000000 74.234 -160.8242
1525.000000 74.286 -160.9791
1550.000000 74.380 -161.0953
1575.000000 74.445 -161.2846
1600.000000 74.552 -161.4915
1625.000000 74.587 -161.6306
1650.000000 74.681 -161.6635
1675.000000 74.753 -161.9065
1700.000000 74.846 -162.1449
1725.000000 74.933 -162.2437
1750.000000 75.059 -162.6148
1775.000000 75.181 -163.0812
1800.000000 75.278 -163.6105
1825.000000 75.429 -164.3332
1850.000000 75.542 -165.5099
1875.000000 75.659 -166.9328
1900.000000 75.634 -168.9801
1925.000000 75.559 -170.7393
1950.000000 75.350 -172.4811
1975.000000 75.069 -173.2077
2000.000000 74.772 -172.6736
2030.000000 74.555 -172.6563
2060.000000 74.424 -171.8953
2090.000000 74.341 -171.2765
2120.000000 74.318 -170.6634
2140.000000 74.313 -170.3247
2180.000000 74.314 -169.7720
2200.000000 74.318 -169.7064
2240.000000 74.328 -169.5580
2270.000000 74.329 -169.4780
2300.000000 74.277 -169.3156
2330.000000 74.306 -169.2912
2360.000000 74.283 -169.1116
2400.000000 74.283 -168.8454
2430.000000 74.300 -168.7785
2470.000000 74.347 -168.5271
2500.000000 74.381 -168.5647
2540.000000 74.397 -168.9579
2580.000000 74.374 -169.3243
2620.000000 74.356 -169.5238
2650.000000 74.331 -169.5480
2690.000000 74.309 -169.4761
2720.000000 74.272 -169.7106
2760.000000 74.259 -169.8064
2800.000000 74.229 -169.8557
2850.000000 74.184 -169.8445
2900.000000 74.119 -170.0397
2950.000000 74.077 -170.0600
3000.000000 73.956 -170.5291
3040.000000 74.000 -170.6538
3070.000000 73.946 -171.0585
3110.000000 73.834 -171.9320
3150.000000 73.571 -172.7499
3200.000000 72.986 -172.7150
3250.000000 72.377 -168.2483
3300.000000 72.606 -162.8727
3350.000000 73.042 -160.5497
3400.000000 73.367 -160.1259
3450.000000 73.595 -159.9500
3500.000000 73.762 -160.0083
3550.000000 73.831 -159.9428
3600.000000 73.923 -159.7730
3650.000000 73.986 -159.8280
3700.000000 74.030 -159.5544
3750.000000 74.119 -159.5189
3820.000000 74.173 -159.1754
3870.000000 74.227 -158.9363
3950.000000 74.308 -157.9009
4000.000000 74.429 -157.8434
4060.000000 74.563 -157.9846
4120.000000 74.690 -157.6010
4180.000000 74.804 -157.6936
4250.000000 74.943 -158.1087
4310.000000 75.021 -158.6700
4370.000000 74.938 -159.0302
4440.000000 74.931 -157.8766
4500.000000 75.069 -157.0193
4550.000000 75.240 -156.9979
4620.000000 75.454 -157.5565
4680.000000 75.560 -157.7758
4750.000000 75.718 -158.5285
4820.000000 75.816 -159.8097
4870.000000 75.860 -160.7718
4940.000000 75.749 -161.8631
5000.000000 75.666 -161.7253
5080.000000 75.582 -162.2081
5150.000000 75.488 -161.7125
5220.000000 75.564 -160.9348
5300.000000 75.671 -160.6855
5380.000000 75.813 -161.1179
5450.000000 75.939 -161.0880
5520.000000 76.088 -161.9803
5600.000000 76.227 -163.7539
5700.000000 76.221 -167.7688
5800.000000 75.709 -173.4498
5900.000000 73.548 -177.3663
6000.000000 71.889 -149.3790
6080.000000 74.713 -143.3346
6150.000000 75.876 -146.8196
6220.000000 76.393 -150.5635
6300.000000 76.650 -153.6589
6400.000000 76.786 -156.3498
6500.000000 76.815 -158.2480
6600.000000 76.837 -159.3065
6700.000000 76.845 -160.4672
6800.000000 76.873 -161.5805
6900.000000 76.899 -162.5755
7000.000000 76.859 -163.3631
7100.000000 76.782 -164.0795
7200.000000 76.720 -163.9920
7300.000000 76.751 -164.0781
7400.000000 76.836 -163.6553
7500.000000 77.003 -163.5166
7620.000000 77.280 -164.2285
7750.000000 77.527 -165.4509
7880.000000 77.785 -167.2607
8000.000000 77.953 -169.1037
8120.000000 78.173 -171.9326
8250.000000 78.331 -175.2658
8380.000000 78.438 -178.8109
8500.000000 78.446 177.4051
8620.000000 78.465 172.7392
8750.000000 78.303 165.8756
8850.000000 77.861 159.7801
9000.000000 76.107 150.1222
9120.000000 73.416 155.6781
9250.000000 73.830 169.7484
9380.000000 74.468 170.5959
9500.000000 74.563 169.2924
9620.000000 74.497 168.2171
9750.000000 74.253 166.8423
9880.000000 73.838 167.4122
10000.000000 73.628 168.1460
10150.000000 73.531 170.0175
10300.000000 73.665 172.3598
10440.000000 74.210 171.4178
10600.000000 74.156 165.7284
10750.000000 73.599 164.1292
10900.000000 73.465 164.4248
11060.000000 73.672 162.9207
11200.000000 73.804 158.0153
11380.000000 72.896 143.0795
11500.000000 70.027 139.3141
11720.000000 67.887 165.2098
11800.000000 68.434 170.8994
12060.000000 69.681 175.0258
12200.000000 69.897 174.7745
12410.000000 69.924 174.0373
12500.000000 70.018 173.5459
12650.000000 69.914 173.5872
12800.000000 69.982 171.6856
13150.000000 68.176 172.3568
13200.000000 68.119 173.2446
13400.000000 68.598 178.5660
13600.000000 69.154 177.5497
13800.000000 69.516 171.3321
14000.000000 68.536 159.8152
14300.000000 64.159 168.3310
14500.000000 64.079 -172.1060
14750.000000 65.917 -160.5626
15000.000000 67.097 -161.1422
15250.000000 67.899 -164.4357
15500.000000 68.146 -169.2057
15750.000000 68.133 -171.4284
16000.000000 67.745 -174.2657
16250.000000 68.069 -170.9250
16500.000000 68.266 -175.1750
16750.000000 68.006 -178.0569
17000.000000 67.138 -179.6960
17250.000000 66.462 -175.3746
17500.000000 66.884 -172.8709
17750.000000 67.475 -174.9193
18000.000000 67.664 179.0339
18250.000000 67.563 171.9352
18500.000000 66.642 163.8660
18750.000000 65.186 157.3560
19000.000000 63.575 153.9219
19250.000000 61.693 154.3805
19500.000000 60.015 153.3239
19750.000000 58.917 152.7064
20000.000000 57.194 154.1092
20300.000000 53.643 144.8976
20600.000000 48.307 159.4245
20900.000000 44.395 -176.8940
21200.000000 42.305 174.2664
21400.000000 42.883 -173.9314
21800.000000 35.457 149.6435
22000.000000 26.986 -101.4793
22400.000000 26.552 -147.6017
22700.000000 19.913 -143.6719
23000.000000 17.328 66.3125
23300.000000 19.306 -104.3164
23600.000000 25.837 -167.3398

