* Measurement data measured by REW V5.20.13
* Source: Microphone (USB Sound Device        ), MICROPHONE (Master Volume), R, volume: 0,250
* Format: 256k Log Swept Sine, 1 sweep at -12,0 dBFS with no timing reference
* Dated: 22:40:54 01-07-2024
* REW Settings:
*  C-weighting compensation: Off
*  Target level: 75.0 dB
* Note: ; 
* Measurement: Simgot Supermix 4 75ohm L
* Smoothing: None
* Frequency Step: 1/48 octave
* Start Frequency: 1.000 Hz
*
* Freq(Hz) SPL(dB) Phase(degrees)
1.000000 84.548 150.1317
1.015000 84.502 149.7702
1.030000 84.457 149.4119
1.044000 84.415 149.0804
1.060000 84.367 148.7050
1.075000 84.323 148.3566
1.090000 84.279 148.0114
1.106000 84.232 147.6472
1.120000 84.190 147.3330
1.138000 84.137 146.9353
1.150000 84.100 146.6739
1.172000 84.033 146.2017
1.180000 84.009 146.0323
1.206000 83.929 145.4887
1.220000 83.885 145.2003
1.241000 83.820 144.7728
1.250000 83.792 144.5913
1.265000 83.746 144.2909
1.280000 83.700 143.9928
1.315000 83.593 143.3050
1.320000 83.578 143.2074
1.340000 83.518 142.8188
1.360000 83.459 142.4320
1.380000 83.401 142.0464
1.400000 83.344 141.6614
1.430000 83.261 141.0837
1.450000 83.208 140.6975
1.475000 83.144 140.2139
1.500000 83.081 139.7399
1.525000 83.020 139.2765
1.550000 82.959 138.8213
1.575000 82.899 138.3722
1.600000 82.841 137.9268
1.625000 82.784 137.4831
1.650000 82.729 137.0388
1.675000 82.676 136.5916
1.700000 82.625 136.1392
1.725000 82.576 135.6796
1.750000 82.529 135.2105
1.775000 82.484 134.7296
1.800000 82.442 134.2346
1.825000 82.403 133.7235
1.850000 82.366 133.1989
1.875000 82.332 132.6710
1.900000 82.301 132.1390
1.925000 82.271 131.6016
1.950000 82.244 131.0575
1.975000 82.219 130.5054
2.000000 82.197 129.9442
2.030000 82.172 129.2567
2.060000 82.150 128.5518
2.090000 82.130 127.8274
2.120000 82.113 127.0812
2.140000 82.102 126.5706
2.180000 82.084 125.5147
2.200000 82.077 124.9682
2.240000 82.065 123.8404
2.270000 82.060 122.9666
2.300000 82.058 122.0701
2.330000 82.059 121.1522
2.360000 82.061 120.2141
2.400000 82.068 118.9338
2.430000 82.075 117.9530
2.470000 82.087 116.6203
2.500000 82.096 115.6034
2.540000 82.111 114.2269
2.580000 82.126 112.8266
2.620000 82.144 111.3837
2.650000 82.159 110.2744
2.690000 82.182 108.7655
2.720000 82.201 107.6155
2.760000 82.228 106.0639
2.800000 82.256 104.4984
2.850000 82.292 102.5335
2.900000 82.329 100.5738
2.950000 82.366 98.6280
3.000000 82.404 96.6569
3.040000 82.436 95.0627
3.070000 82.461 93.8620
3.110000 82.495 92.2604
3.150000 82.529 90.6653
3.200000 82.572 88.6921
3.250000 82.616 86.7560
3.300000 82.658 84.8718
3.350000 82.700 83.0190
3.400000 82.743 81.1826
3.450000 82.786 79.3721
3.500000 82.828 77.5967
3.550000 82.871 75.8662
3.600000 82.915 74.1898
3.650000 82.958 72.5770
3.700000 83.001 71.0292
3.750000 83.043 69.5321
3.820000 83.102 67.5228
3.870000 83.145 66.1513
3.950000 83.216 64.0712
4.000000 83.262 62.8447
4.060000 83.319 61.4521
4.120000 83.378 60.1537
4.180000 83.437 58.9410
4.250000 83.510 57.6200
4.310000 83.575 56.5560
4.370000 83.644 55.5436
4.440000 83.730 54.4287
4.500000 83.808 53.5549
4.550000 83.875 52.8754
4.620000 83.973 51.9800
4.680000 84.059 51.2474
4.750000 84.162 50.4116
4.820000 84.269 49.5985
4.870000 84.349 49.0486
4.940000 84.463 48.3110
5.000000 84.562 47.6979
5.080000 84.693 46.8903
5.150000 84.804 46.1776
5.220000 84.915 45.4695
5.300000 85.042 44.6716
5.380000 85.166 43.8845
5.450000 85.270 43.2035
5.520000 85.366 42.5281
5.600000 85.471 41.7568
5.700000 85.593 40.8046
5.800000 85.705 39.8839
5.900000 85.804 39.0106
6.000000 85.889 38.1712
6.080000 85.950 37.5288
6.150000 85.998 36.9944
6.220000 86.042 36.4909
6.300000 86.088 35.9556
6.400000 86.136 35.3395
6.500000 86.178 34.7768
6.600000 86.217 34.2614
6.700000 86.254 33.8045
6.800000 86.286 33.3999
6.900000 86.318 33.0240
7.000000 86.350 32.6582
7.100000 86.383 32.3216
7.200000 86.416 32.0005
7.300000 86.447 31.6714
7.400000 86.478 31.3232
7.500000 86.509 30.9693
7.620000 86.543 30.5269
7.750000 86.573 30.0113
7.880000 86.597 29.4582
8.000000 86.614 28.9260
8.120000 86.622 28.3806
8.250000 86.623 27.7671
8.380000 86.617 27.1470
8.500000 86.605 26.5820
8.620000 86.587 26.0177
8.750000 86.563 25.4122
8.850000 86.543 24.9547
9.000000 86.510 24.2813
9.120000 86.483 23.7448
9.250000 86.455 23.1618
9.380000 86.427 22.5798
9.500000 86.403 22.0323
9.620000 86.381 21.4693
9.750000 86.359 20.8464
9.880000 86.338 20.2061
10.000000 86.320 19.5964
10.150000 86.299 18.8129
10.300000 86.279 18.0154
10.440000 86.262 17.2556
10.600000 86.245 16.3798
10.750000 86.231 15.5595
10.900000 86.220 14.7380
11.060000 86.213 13.8683
11.200000 86.210 13.1124
11.380000 86.212 12.1471
11.500000 86.217 11.5073
11.720000 86.232 10.3442
11.800000 86.239 9.9242
12.060000 86.267 8.5742
12.200000 86.283 7.8635
12.410000 86.310 6.8220
12.500000 86.322 6.3907
12.650000 86.342 5.6892
12.800000 86.362 5.0149
13.150000 86.408 3.5608
13.200000 86.415 3.3660
13.400000 86.442 2.6209
13.600000 86.468 1.9215
13.800000 86.494 1.2658
14.000000 86.517 0.6465
14.300000 86.547 -0.2180
14.500000 86.562 -0.7554
14.750000 86.574 -1.3883
15.000000 86.580 -1.9820
15.250000 86.578 -2.5459
15.500000 86.567 -3.0873
15.750000 86.549 -3.6093
16.000000 86.521 -4.1127
16.250000 86.485 -4.5898
16.500000 86.444 -5.0379
16.750000 86.399 -5.4524
17.000000 86.357 -5.8484
17.250000 86.320 -6.2450
17.500000 86.290 -6.6679
17.750000 86.267 -7.1558
18.000000 86.249 -7.7210
18.250000 86.233 -8.3764
18.500000 86.214 -9.1089
18.750000 86.192 -9.8966
19.000000 86.165 -10.7185
19.250000 86.135 -11.5410
19.500000 86.105 -12.3510
19.750000 86.077 -13.1385
20.000000 86.052 -13.9005
20.299999 86.030 -14.7875
20.600000 86.015 -15.6489
20.900000 86.005 -16.4868
21.200001 85.999 -17.2981
21.400000 85.995 -17.8198
21.799999 85.988 -18.8096
22.000000 85.985 -19.2741
22.400000 85.974 -20.1377
22.700001 85.964 -20.7287
23.000000 85.951 -21.2751
23.299999 85.936 -21.7846
23.600000 85.916 -22.2655
24.000000 85.884 -22.8729
24.299999 85.854 -23.3076
24.700001 85.807 -23.8594
25.000000 85.769 -24.2544
25.400000 85.717 -24.7697
25.799999 85.669 -25.3052
26.200001 85.625 -25.8995
26.500000 85.592 -26.3966
26.900000 85.548 -27.1244
27.200001 85.514 -27.7057
27.600000 85.468 -28.5066
28.000000 85.423 -29.3185
28.500000 85.372 -30.3344
29.000000 85.329 -31.3415
29.500000 85.290 -32.3260
30.000000 85.255 -33.2679
30.400000 85.227 -33.9770
30.700001 85.205 -34.4776
31.100000 85.177 -35.1024
31.500000 85.149 -35.6865
32.000000 85.114 -36.3855
32.500000 85.075 -37.0770
33.000000 85.027 -37.7655
33.500000 84.970 -38.4371
34.000000 84.908 -39.0881
34.500000 84.844 -39.7373
35.000000 84.782 -40.4066
35.500000 84.720 -41.1037
36.000000 84.658 -41.8201
36.500000 84.598 -42.5439
37.000000 84.540 -43.2661
37.500000 84.487 -43.9818
38.200001 84.416 -44.9626
38.700001 84.368 -45.6372
39.500000 84.292 -46.6556
40.000000 84.246 -47.2601
40.599998 84.190 -47.9658
41.200001 84.132 -48.6591
41.799999 84.071 -49.3485
42.500000 83.994 -50.1530
43.099998 83.925 -50.8308
43.700001 83.856 -51.4914
44.400002 83.780 -52.2600
45.000000 83.716 -52.9300
45.500000 83.664 -53.4919
46.200001 83.590 -54.2728
46.799999 83.525 -54.9185
47.500000 83.450 -55.6216
48.200001 83.382 -56.3152
48.700001 83.334 -56.8441
49.400002 83.254 -57.5978
50.000000 83.180 -58.1729
50.799999 83.095 -58.8541
51.500000 83.034 -59.5140
52.200001 82.968 -60.2458
53.000000 82.882 -61.0332
53.799999 82.801 -61.7464
54.500000 82.733 -62.3617
55.200001 82.664 -62.9651
56.000000 82.585 -63.6470
57.000000 82.479 -64.5076
58.000000 82.370 -65.3350
59.000000 82.265 -66.1707
60.000000 82.164 -67.0119
60.799999 82.086 -67.6885
61.500000 82.017 -68.2595
62.200001 81.952 -68.8039
63.000000 81.880 -69.4441
64.000000 81.776 -70.2158
65.000000 81.674 -70.8802
66.000000 81.579 -71.5803
67.000000 81.479 -72.3169
68.000000 81.380 -73.0481
69.000000 81.285 -73.7722
70.000000 81.194 -74.5144
71.000000 81.098 -75.2114
72.000000 81.010 -75.8443
73.000000 80.922 -76.5323
74.000000 80.823 -77.1763
75.000000 80.729 -77.7834
76.199997 80.615 -78.5450
77.500000 80.492 -79.3399
78.800003 80.374 -80.1004
80.000000 80.272 -80.8512
81.199997 80.153 -81.5740
82.500000 80.039 -82.2818
83.800003 79.916 -82.9935
85.000000 79.825 -83.6245
86.199997 79.708 -84.3362
87.500000 79.593 -84.9430
88.500000 79.489 -85.4375
90.000000 79.382 -85.9295
91.199997 79.300 -86.7146
92.500000 79.184 -87.4125
93.800003 79.075 -88.0520
95.000000 78.982 -88.6151
96.199997 78.873 -89.1755
97.500000 78.767 -89.6744
98.800003 78.650 -90.2545
100.000000 78.550 -90.6341
101.500000 78.447 -91.2879
103.000000 78.333 -91.8246
104.400002 78.247 -92.5304
106.000000 78.124 -93.2381
107.500000 78.005 -93.8997
109.000000 77.901 -94.4854
110.599998 77.791 -95.2168
112.000000 77.645 -95.6454
113.800003 77.556 -96.0166
115.000000 77.483 -96.5730
117.199997 77.322 -97.3832
118.000000 77.274 -97.6569
120.599998 77.100 -98.5141
122.000000 77.021 -98.9633
124.099998 76.875 -99.6409
125.000000 76.822 -100.0517
126.500000 76.725 -100.6753
128.000000 76.575 -101.2778
131.500000 76.383 -102.1610
132.000000 76.355 -102.2352
134.000000 76.253 -102.8126
136.000000 76.110 -103.3113
138.000000 75.988 -103.8095
140.000000 75.888 -104.4411
143.000000 75.716 -105.1779
145.000000 75.572 -105.6862
147.500000 75.436 -105.9214
150.000000 75.350 -106.4315
152.500000 75.263 -107.1949
155.000000 75.148 -108.0398
157.500000 75.004 -108.7220
160.000000 74.867 -109.3841
162.500000 74.740 -109.9455
165.000000 74.604 -110.4995
167.500000 74.481 -111.0366
170.000000 74.363 -111.6577
172.500000 74.236 -112.0795
175.000000 74.121 -112.5225
177.500000 74.001 -112.9396
180.000000 73.892 -113.4000
182.500000 73.760 -113.8423
185.000000 73.657 -114.2432
187.500000 73.552 -114.6682
190.000000 73.455 -115.0831
192.500000 73.340 -115.3726
195.000000 73.243 -115.8251
197.500000 73.147 -116.1070
200.000000 73.030 -116.4761
203.000000 72.926 -116.7062
206.000000 72.827 -117.1483
209.000000 72.703 -117.5323
212.000000 72.598 -117.8876
214.000000 72.529 -118.0766
218.000000 72.398 -118.4217
220.000000 72.337 -118.7792
224.000000 72.204 -119.0903
227.000000 72.108 -119.3083
230.000000 72.020 -119.6996
233.000000 71.920 -119.9678
236.000000 71.838 -120.0710
240.000000 71.724 -120.5046
243.000000 71.649 -120.7494
247.000000 71.533 -121.0362
250.000000 71.462 -121.4001
254.000000 71.353 -121.5532
258.000000 71.265 -121.8554
262.000000 71.141 -122.0019
265.000000 71.068 -122.2264
269.000000 70.987 -122.2505
272.000000 70.915 -122.4963
276.000000 70.820 -122.6421
280.000000 70.743 -122.8597
285.000000 70.633 -122.9765
290.000000 70.544 -123.2081
295.000000 70.448 -123.4252
300.000000 70.353 -123.5733
304.000000 70.290 -123.4965
307.000000 70.261 -123.2988
311.000000 70.182 -123.3446
315.000000 70.194 -123.4053
320.000000 70.149 -123.5332
325.000000 70.065 -124.0972
330.000000 70.012 -124.2664
335.000000 69.939 -124.2601
340.000000 69.881 -124.5008
345.000000 69.842 -124.5751
350.000000 69.758 -124.3747
355.000000 69.690 -124.6778
360.000000 69.655 -124.8304
365.000000 69.587 -124.9145
370.000000 69.564 -124.8717
375.000000 69.498 -124.9532
382.000000 69.432 -125.0112
387.000000 69.401 -124.9356
395.000000 69.304 -125.3308
400.000000 69.294 -125.3634
406.000000 69.229 -125.1028
412.000000 69.192 -124.9828
418.000000 69.174 -125.1706
425.000000 69.115 -125.2921
431.000000 69.081 -124.9944
437.000000 69.057 -125.0917
444.000000 69.014 -124.9245
450.000000 68.987 -124.7436
455.000000 68.950 -124.9376
462.000000 68.920 -125.0036
468.000000 68.907 -124.7452
475.000000 68.881 -124.7607
482.000000 68.836 -124.8055
487.000000 68.822 -124.8301
494.000000 68.813 -124.8550
500.000000 68.787 -124.4216
508.000000 68.731 -124.4493
515.000000 68.676 -124.5999
522.000000 68.661 -124.4817
530.000000 68.598 -124.1940
538.000000 68.552 -123.9957
545.000000 68.518 -123.6752
552.000000 68.472 -123.3784
560.000000 68.480 -122.9033
570.000000 68.490 -122.4758
580.000000 68.489 -122.3652
590.000000 68.467 -122.1522
600.000000 68.460 -121.8008
608.000000 68.455 -121.3508
615.000000 68.468 -121.1872
622.000000 68.451 -120.9355
630.000000 68.450 -120.6668
640.000000 68.447 -120.1459
650.000000 68.388 -120.0598
660.000000 68.456 -119.4957
670.000000 68.461 -119.1148
680.000000 68.473 -118.5140
690.000000 68.472 -118.4022
700.000000 68.477 -117.7740
710.000000 68.489 -117.5738
720.000000 68.469 -117.3373
730.000000 68.501 -116.6410
740.000000 68.528 -116.0699
750.000000 68.554 -115.5094
762.000000 68.546 -114.9343
775.000000 68.586 -114.6471
788.000000 68.631 -113.8414
800.000000 68.646 -113.7437
812.000000 68.669 -112.9890
825.000000 68.671 -112.2297
838.000000 68.742 -111.3672
850.000000 68.811 -110.8335
862.000000 68.887 -110.1312
875.000000 68.943 -109.6205
885.000000 68.978 -109.0496
900.000000 69.086 -108.4482
912.000000 69.111 -107.5787
925.000000 69.193 -106.8809
938.000000 69.291 -106.4574
950.000000 69.368 -105.8379
962.000000 69.455 -105.5384
975.000000 69.529 -105.0559
988.000000 69.630 -104.4291
1000.000000 69.781 -103.5268
1015.000000 69.828 -103.5911
1030.000000 69.968 -102.9945
1044.000000 70.082 -102.6586
1060.000000 70.207 -102.0641
1075.000000 70.323 -101.8280
1090.000000 70.452 -101.2392
1106.000000 70.563 -101.1574
1120.000000 70.686 -100.8656
1138.000000 70.816 -100.3186
1150.000000 70.902 -100.2022
1172.000000 71.035 -100.1010
1180.000000 71.127 -99.7865
1206.000000 71.298 -99.7324
1220.000000 71.410 -99.3417
1241.000000 71.561 -99.4351
1250.000000 71.599 -99.4143
1265.000000 71.648 -99.1368
1280.000000 71.787 -99.1217
1315.000000 71.980 -98.5325
1320.000000 71.980 -98.5880
1340.000000 72.112 -98.3300
1360.000000 72.230 -98.3555
1380.000000 72.363 -98.1901
1400.000000 72.449 -98.2197
1430.000000 72.623 -97.7565
1450.000000 72.735 -97.6261
1475.000000 72.848 -97.3392
1500.000000 72.982 -97.1884
1525.000000 73.072 -97.0025
1550.000000 73.251 -96.9989
1575.000000 73.382 -96.8032
1600.000000 73.516 -96.6375
1625.000000 73.618 -96.4271
1650.000000 73.750 -96.2807
1675.000000 73.898 -95.8858
1700.000000 74.035 -95.8487
1725.000000 74.173 -95.8024
1750.000000 74.295 -95.7020
1775.000000 74.445 -95.5030
1800.000000 74.576 -95.2804
1825.000000 74.734 -95.4023
1850.000000 74.878 -95.3847
1875.000000 75.016 -95.4683
1900.000000 75.163 -95.4190
1925.000000 75.311 -95.4389
1950.000000 75.453 -95.6020
1975.000000 75.589 -95.7656
2000.000000 75.675 -95.9030
2030.000000 75.916 -96.1023
2060.000000 76.071 -96.4868
2090.000000 76.244 -96.8270
2120.000000 76.406 -97.1180
2140.000000 76.504 -97.3972
2180.000000 76.706 -97.8531
2200.000000 76.815 -98.0936
2240.000000 77.046 -98.4895
2270.000000 77.220 -98.8927
2300.000000 77.437 -99.6762
2330.000000 77.602 -100.4561
2360.000000 77.752 -101.5885
2400.000000 77.909 -103.0907
2430.000000 77.999 -104.0212
2470.000000 78.102 -105.3788
2500.000000 78.172 -106.1831
2540.000000 78.280 -106.9017
2580.000000 78.420 -107.9801
2620.000000 78.587 -109.3909
2650.000000 78.694 -110.7551
2690.000000 78.780 -112.8195
2720.000000 78.810 -114.3976
2760.000000 78.800 -116.3226
2800.000000 78.745 -118.2040
2850.000000 78.622 -120.3699
2900.000000 78.488 -122.1042
2950.000000 78.311 -123.5382
3000.000000 78.112 -125.2396
3040.000000 78.012 -125.8728
3070.000000 77.915 -126.3783
3110.000000 77.789 -127.1508
3150.000000 77.647 -127.9012
3200.000000 77.481 -128.5485
3250.000000 77.305 -129.0638
3300.000000 77.152 -129.4580
3350.000000 77.014 -129.6218
3400.000000 76.880 -129.7801
3450.000000 76.737 -130.1239
3500.000000 76.592 -130.1821
3550.000000 76.441 -130.1113
3600.000000 76.274 -129.9202
3650.000000 76.112 -129.3677
3700.000000 76.050 -128.4573
3750.000000 75.988 -127.7148
3820.000000 75.976 -126.6792
3870.000000 75.991 -126.1124
3950.000000 76.129 -125.2915
4000.000000 76.209 -124.7689
4060.000000 76.283 -124.7146
4120.000000 76.376 -124.7777
4180.000000 76.502 -124.7965
4250.000000 76.611 -124.9924
4310.000000 76.699 -125.6432
4370.000000 76.796 -125.9573
4440.000000 76.957 -126.4257
4500.000000 77.037 -127.1568
4550.000000 77.117 -127.9117
4620.000000 77.254 -129.1310
4680.000000 77.313 -130.1170
4750.000000 77.359 -131.7005
4820.000000 77.395 -133.3049
4870.000000 77.385 -134.4213
4940.000000 77.382 -136.1928
5000.000000 77.314 -137.9471
5080.000000 77.206 -139.5786
5150.000000 77.062 -141.0884
5220.000000 76.923 -142.5064
5300.000000 76.738 -143.6823
5380.000000 76.529 -144.9042
5450.000000 76.317 -145.6255
5520.000000 76.150 -146.4156
5600.000000 75.953 -146.9647
5700.000000 75.703 -147.2811
5800.000000 75.523 -147.3504
5900.000000 75.353 -147.6604
6000.000000 75.252 -147.8176
6080.000000 75.184 -147.9567
6150.000000 75.118 -148.3399
6220.000000 75.110 -148.3936
6300.000000 75.063 -148.7617
6400.000000 75.008 -149.4789
6500.000000 74.957 -150.5900
6600.000000 74.881 -151.7169
6700.000000 74.804 -152.6622
6800.000000 74.735 -154.0310
6900.000000 74.620 -155.5014
7000.000000 74.421 -156.9437
7100.000000 74.214 -158.3367
7200.000000 74.069 -159.0369
7300.000000 73.851 -159.3728
7400.000000 73.689 -159.5925
7500.000000 73.628 -160.3263
7620.000000 73.599 -161.1851
7750.000000 73.651 -162.7875
7880.000000 73.585 -164.8818
8000.000000 73.502 -167.2948
8120.000000 73.350 -170.6486
8250.000000 73.009 -173.5621
8380.000000 72.595 -176.4112
8500.000000 72.144 -178.2467
8620.000000 71.589 -179.6802
8750.000000 71.109 179.3721
8850.000000 70.672 178.9677
9000.000000 69.956 179.6862
9120.000000 69.578 -179.5701
9250.000000 69.083 -178.7586
9380.000000 68.804 -177.0637
9500.000000 68.533 -176.1735
9620.000000 68.185 -174.2679
9750.000000 67.962 -172.1540
9880.000000 67.751 -170.8063
10000.000000 67.750 -169.1761
10150.000000 67.435 -164.7534
10300.000000 67.418 -161.5370
10440.000000 67.428 -157.1897
10600.000000 67.657 -153.9382
10750.000000 68.148 -149.0723
10900.000000 68.756 -146.2368
11060.000000 69.445 -143.0407
11200.000000 70.397 -141.8743
11380.000000 71.508 -142.0364
11500.000000 72.382 -143.9240
11720.000000 73.772 -150.8166
11800.000000 74.099 -153.6771
12060.000000 74.463 -166.4183
12200.000000 74.319 -171.7267
12410.000000 73.661 -177.2665
12500.000000 73.367 -178.2534
12650.000000 73.001 -179.6054
12800.000000 72.777 -179.4747
13150.000000 72.848 -178.9631
13200.000000 72.919 -179.0842
13400.000000 73.465 179.6573
13600.000000 74.059 174.8333
13800.000000 74.368 167.5622
14000.000000 74.085 160.0167
14300.000000 73.110 150.1076
14500.000000 72.206 147.3984
14750.000000 71.311 145.8174
15000.000000 70.435 146.4166
15250.000000 70.110 146.9023
15500.000000 70.012 148.5374
15750.000000 70.370 149.1742
16000.000000 70.890 146.6450
16250.000000 71.289 140.5751
16500.000000 71.532 131.6087
16750.000000 71.316 118.5398
17000.000000 69.935 104.3801
17250.000000 67.855 94.2385
17500.000000 65.065 90.2761
17750.000000 62.143 92.5821
18000.000000 60.171 98.5682
18250.000000 58.404 108.7667
18500.000000 57.865 113.8050
18750.000000 57.250 116.5403
19000.000000 56.132 118.8157
19250.000000 54.876 119.9209
19500.000000 53.602 111.0452
19750.000000 51.709 112.2748
20000.000000 48.766 119.9879
20300.000000 45.591 140.0782
20600.000000 43.090 132.3023
20900.000000 40.083 144.5590
21200.000000 37.340 164.2834
21400.000000 34.346 175.2163
21800.000000 29.977 173.9969
22000.000000 21.150 136.6176
22400.000000 23.717 -34.2485
22700.000000 7.347 -26.3184
23000.000000 12.087 -4.3633
23300.000000 18.559 -164.3281
23600.000000 24.508 -175.9609

