* Measurement data measured by REW V5.20.13
* Source: Microphone (USB Sound Device        ), MICROPHONE (Master Volume), R, volume: 0,250
* Format: 256k Log Swept Sine, 1 sweep at -12,0 dBFS with no timing reference
* Dated: 23:31:32 04-02-2024
* REW Settings:
*  C-weighting compensation: Off
*  Target level: 75.0 dB
* Note: ; 
* Measurement: Simgot EA1000 red R
* Smoothing: None
* Frequency Step: 1/48 octave
* Start Frequency: 1.000 Hz
*
* Freq(Hz) SPL(dB) Phase(degrees)
1.000000 84.410 120.8827
1.015000 84.234 119.9733
1.030000 84.050 119.0596
1.044000 83.873 118.2027
1.060000 83.662 117.2183
1.075000 83.457 116.2900
1.090000 83.244 115.3561
1.106000 83.008 114.3779
1.120000 82.805 113.6674
1.138000 82.549 112.9612
1.150000 82.380 112.6005
1.172000 82.072 112.1200
1.180000 81.959 111.9908
1.206000 81.589 111.6779
1.220000 81.385 111.5439
1.241000 81.068 111.3332
1.250000 80.928 111.2247
1.265000 80.688 110.9994
1.280000 80.437 110.6972
1.315000 79.805 109.5524
1.320000 79.709 109.3250
1.340000 79.305 108.2192
1.360000 78.871 106.7547
1.380000 78.402 104.8724
1.400000 77.895 102.5131
1.430000 77.057 97.9506
1.450000 76.441 94.1401
1.475000 75.587 88.3777
1.500000 74.530 81.2299
1.525000 73.278 72.8129
1.550000 71.874 63.3269
1.575000 70.359 52.9720
1.600000 68.775 41.9485
1.625000 67.165 30.4566
1.650000 65.569 18.6963
1.675000 64.029 6.8680
1.700000 62.587 -4.8283
1.725000 61.285 -16.1924
1.750000 60.165 -27.0240
1.775000 59.267 -37.1230
1.800000 58.635 -46.2892
1.825000 58.309 -54.3225
1.850000 58.329 -61.2595
1.875000 58.686 -67.5895
1.900000 59.337 -73.3784
1.925000 60.237 -78.6698
1.950000 61.342 -83.5077
1.975000 62.608 -87.9360
2.000000 63.989 -91.9984
2.030000 65.736 -96.4522
2.060000 67.510 -100.5182
2.090000 69.232 -104.2722
2.120000 70.827 -107.7899
2.140000 71.782 -110.0413
2.180000 73.327 -114.4199
2.200000 73.873 -116.5899
2.240000 74.691 -120.4621
2.270000 75.149 -122.8682
2.300000 75.492 -124.9090
2.330000 75.734 -126.6404
2.360000 75.893 -128.1180
2.400000 76.000 -129.7893
2.430000 76.023 -130.8910
2.470000 76.007 -132.2631
2.500000 75.980 -133.2919
2.540000 75.953 -134.7688
2.580000 75.962 -136.4659
2.620000 75.938 -138.2673
2.650000 75.887 -139.6302
2.690000 75.778 -141.4159
2.720000 75.666 -142.6990
2.760000 75.477 -144.2874
2.800000 75.246 -145.6816
2.850000 74.901 -147.0609
2.900000 74.496 -147.9284
2.950000 74.021 -148.2248
3.000000 73.381 -148.3266
3.040000 72.771 -148.2439
3.070000 72.278 -148.0294
3.110000 71.603 -147.4711
3.150000 70.936 -146.5222
3.200000 70.168 -144.6555
3.250000 69.534 -141.8749
3.300000 69.101 -138.0079
3.350000 68.834 -132.3457
3.400000 68.674 -124.9329
3.450000 68.617 -116.4501
3.500000 68.655 -107.5778
3.550000 68.782 -98.9965
3.600000 68.992 -91.3869
3.650000 69.280 -85.4293
3.700000 69.678 -81.4118
3.750000 70.250 -78.6199
3.820000 71.245 -76.3126
3.870000 72.017 -75.5188
3.950000 73.205 -75.1392
4.000000 73.829 -75.1264
4.060000 74.392 -75.1516
4.120000 74.845 -75.8238
4.180000 75.218 -77.0593
4.250000 75.563 -78.9290
4.310000 75.796 -80.6555
4.370000 75.981 -82.2721
4.440000 76.139 -83.9187
4.500000 76.205 -85.4354
4.550000 76.217 -86.7385
4.620000 76.178 -88.5236
4.680000 76.101 -89.9252
4.750000 75.974 -91.2914
4.820000 75.796 -92.3914
4.870000 75.624 -93.1119
4.940000 75.339 -93.9536
5.000000 75.071 -94.4495
5.080000 74.709 -94.6685
5.150000 74.411 -94.3327
5.220000 74.080 -93.4423
5.300000 73.680 -91.8917
5.380000 73.310 -89.9711
5.450000 73.055 -88.1499
5.520000 72.898 -86.2909
5.600000 72.823 -83.7121
5.700000 72.844 -80.1653
5.800000 72.952 -77.0088
5.900000 73.121 -74.9628
6.000000 73.405 -73.7947
6.080000 73.677 -73.3504
6.150000 73.909 -73.2860
6.220000 74.103 -73.4967
6.300000 74.279 -74.1616
6.400000 74.474 -75.6517
6.500000 74.623 -77.5649
6.600000 74.708 -79.5710
6.700000 74.718 -81.7616
6.800000 74.668 -84.1773
6.900000 74.572 -86.5734
7.000000 74.440 -88.7474
7.100000 74.251 -90.8486
7.200000 74.028 -92.8149
7.300000 73.806 -94.5091
7.400000 73.593 -95.8318
7.500000 73.367 -96.8437
7.620000 73.127 -97.7537
7.750000 72.970 -98.4443
7.880000 72.900 -98.6811
8.000000 72.912 -98.8415
8.120000 73.008 -99.2699
8.250000 73.217 -99.8748
8.380000 73.480 -100.7327
8.500000 73.733 -101.8924
8.620000 74.018 -103.3842
8.750000 74.326 -105.1841
8.850000 74.538 -106.6156
9.000000 74.836 -108.9626
9.120000 75.051 -110.8040
9.250000 75.254 -112.6115
9.380000 75.427 -114.3086
9.500000 75.575 -115.6824
9.620000 75.716 -116.8044
9.750000 75.855 -117.7823
9.880000 75.999 -118.5613
10.000000 76.142 -119.0910
10.150000 76.330 -119.5224
10.300000 76.531 -119.8765
10.440000 76.735 -120.1229
10.600000 76.972 -120.3729
10.750000 77.190 -120.6575
10.900000 77.404 -120.9557
11.060000 77.612 -121.2773
11.200000 77.778 -121.5703
11.380000 77.970 -121.8973
11.500000 78.082 -122.0703
11.720000 78.265 -122.3065
11.800000 78.327 -122.3594
12.060000 78.508 -122.4427
12.200000 78.599 -122.4748
12.410000 78.726 -122.5146
12.500000 78.775 -122.5518
12.650000 78.850 -122.6370
12.800000 78.916 -122.7442
13.150000 79.019 -123.0758
13.200000 79.029 -123.1219
13.400000 79.056 -123.2996
13.600000 79.073 -123.4600
13.800000 79.084 -123.5900
14.000000 79.098 -123.7523
14.300000 79.127 -124.0998
14.500000 79.152 -124.4786
14.750000 79.177 -125.1265
15.000000 79.194 -125.9607
15.250000 79.194 -126.9015
15.500000 79.187 -127.8653
15.750000 79.180 -128.8125
16.000000 79.188 -129.7136
16.250000 79.220 -130.6234
16.500000 79.276 -131.5734
16.750000 79.353 -132.6153
17.000000 79.438 -133.7347
17.250000 79.527 -134.8938
17.500000 79.611 -136.0361
17.750000 79.694 -137.0820
18.000000 79.778 -138.0132
18.250000 79.867 -138.8116
18.500000 79.966 -139.5103
18.750000 80.071 -140.1364
19.000000 80.180 -140.7148
19.250000 80.286 -141.2594
19.500000 80.385 -141.7611
19.750000 80.476 -142.2142
20.000000 80.557 -142.6097
20.299999 80.645 -143.0211
20.600000 80.722 -143.3824
20.900000 80.787 -143.7170
21.200001 80.839 -144.0391
21.400000 80.866 -144.2464
21.799999 80.905 -144.6476
22.000000 80.920 -144.8500
22.400000 80.943 -145.2917
22.700001 80.956 -145.6870
23.000000 80.962 -146.1510
23.299999 80.962 -146.6667
23.600000 80.957 -147.2104
24.000000 80.951 -147.9532
24.299999 80.955 -148.5296
24.700001 80.974 -149.3578
25.000000 80.998 -150.0397
25.400000 81.034 -151.0120
25.799999 81.072 -151.9901
26.200001 81.114 -152.9097
26.500000 81.151 -153.5480
26.900000 81.208 -154.3387
27.200001 81.254 -154.8930
27.600000 81.315 -155.5780
28.000000 81.375 -156.1926
28.500000 81.445 -156.8729
29.000000 81.505 -157.4930
29.500000 81.548 -158.0631
30.000000 81.576 -158.5682
30.400000 81.593 -158.9429
30.700001 81.605 -159.2322
31.100000 81.617 -159.6607
31.500000 81.623 -160.1450
32.000000 81.619 -160.8004
32.500000 81.609 -161.4704
33.000000 81.600 -162.1400
33.500000 81.599 -162.8150
34.000000 81.609 -163.5085
34.500000 81.627 -164.2370
35.000000 81.645 -164.9912
35.500000 81.657 -165.7073
36.000000 81.666 -166.3172
36.500000 81.683 -166.8279
37.000000 81.707 -167.3132
37.500000 81.730 -167.8159
38.200001 81.747 -168.4963
38.700001 81.753 -168.9362
39.500000 81.759 -169.6439
40.000000 81.757 -170.1154
40.599998 81.749 -170.6885
41.200001 81.740 -171.2622
41.799999 81.732 -171.8463
42.500000 81.724 -172.5344
43.099998 81.716 -173.1105
43.700001 81.709 -173.6487
44.400002 81.708 -174.2249
45.000000 81.714 -174.7200
45.500000 81.718 -175.1587
46.200001 81.716 -175.7858
46.799999 81.707 -176.2975
47.500000 81.693 -176.8531
48.200001 81.681 -177.3819
48.700001 81.675 -177.7648
49.400002 81.665 -178.3188
50.000000 81.653 -178.7764
50.799999 81.640 -179.3416
51.500000 81.631 -179.8422
52.200001 81.617 179.6598
53.000000 81.595 179.1470
53.799999 81.577 178.6626
54.500000 81.562 178.2182
55.200001 81.543 177.7523
56.000000 81.519 177.2202
57.000000 81.489 176.5756
58.000000 81.465 175.9462
59.000000 81.443 175.3049
60.000000 81.412 174.7099
60.799999 81.387 174.2877
61.500000 81.363 173.9109
62.200001 81.333 173.5703
63.000000 81.304 173.2086
64.000000 81.267 172.6556
65.000000 81.214 172.1560
66.000000 81.176 171.7175
67.000000 81.138 171.2509
68.000000 81.095 170.8836
69.000000 81.061 170.6331
70.000000 81.041 170.4338
71.000000 81.033 170.1939
72.000000 81.026 169.8961
73.000000 81.027 169.5401
74.000000 81.024 169.0659
75.000000 81.015 168.5732
76.199997 80.990 167.9164
77.500000 80.954 167.3936
78.800003 80.924 166.7351
80.000000 80.879 166.2707
81.199997 80.846 165.7175
82.500000 80.789 165.2181
83.800003 80.743 164.7642
85.000000 80.702 164.3904
86.199997 80.659 163.9532
87.500000 80.604 163.5363
88.500000 80.562 163.2269
90.000000 80.507 162.7878
91.199997 80.459 162.4740
92.500000 80.426 162.1668
93.800003 80.383 161.8239
95.000000 80.349 161.5669
96.199997 80.314 161.2587
97.500000 80.276 160.9354
98.800003 80.236 160.5309
100.000000 80.185 160.2775
101.500000 80.154 159.9449
103.000000 80.110 159.5789
104.400002 80.068 159.2220
106.000000 80.022 158.8240
107.500000 79.972 158.5187
109.000000 79.927 158.1356
110.599998 79.871 157.8141
112.000000 79.829 157.5229
113.800003 79.775 157.1218
115.000000 79.736 156.8923
117.199997 79.663 156.4908
118.000000 79.637 156.3651
120.599998 79.558 155.9042
122.000000 79.513 155.5668
124.099998 79.445 155.2719
125.000000 79.419 155.1414
126.500000 79.377 154.9004
128.000000 79.316 154.6605
131.500000 79.212 154.1558
132.000000 79.197 154.0885
134.000000 79.143 153.8212
136.000000 79.079 153.5523
138.000000 79.017 153.3434
140.000000 78.956 153.0870
143.000000 78.859 152.7054
145.000000 78.806 152.5750
147.500000 78.726 152.2617
150.000000 78.646 151.9945
152.500000 78.584 151.7778
155.000000 78.508 151.5831
157.500000 78.446 151.3718
160.000000 78.372 151.1794
162.500000 78.302 151.0371
165.000000 78.236 150.8456
167.500000 78.174 150.6894
170.000000 78.104 150.4882
172.500000 78.042 150.3469
175.000000 77.982 150.2459
177.500000 77.918 150.1161
180.000000 77.861 150.0362
182.500000 77.798 149.9290
185.000000 77.738 149.8533
187.500000 77.674 149.7318
190.000000 77.611 149.6560
192.500000 77.555 149.5816
195.000000 77.497 149.4638
197.500000 77.451 149.4172
200.000000 77.403 149.3707
203.000000 77.319 149.2822
206.000000 77.248 149.2700
209.000000 77.198 149.1904
212.000000 77.139 149.1748
214.000000 77.094 149.1130
218.000000 77.020 149.0779
220.000000 76.974 149.0218
224.000000 76.886 148.9991
227.000000 76.838 149.0331
230.000000 76.782 148.9682
233.000000 76.725 149.0136
236.000000 76.671 149.0455
240.000000 76.595 149.0204
243.000000 76.549 148.9985
247.000000 76.470 148.9820
250.000000 76.422 149.0331
254.000000 76.362 149.0355
258.000000 76.297 149.1961
262.000000 76.235 149.1636
265.000000 76.190 149.2078
269.000000 76.129 149.2398
272.000000 76.089 149.2758
276.000000 76.039 149.4095
280.000000 75.961 149.5394
285.000000 75.900 149.5923
290.000000 75.837 149.6762
295.000000 75.775 149.8475
300.000000 75.689 149.9871
304.000000 75.667 150.1136
307.000000 75.616 150.0911
311.000000 75.563 150.1926
315.000000 75.520 150.3487
320.000000 75.471 150.4770
325.000000 75.413 150.6369
330.000000 75.350 150.8086
335.000000 75.306 150.9146
340.000000 75.254 150.9742
345.000000 75.210 151.1954
350.000000 75.155 151.3638
355.000000 75.113 151.4307
360.000000 75.065 151.6245
365.000000 75.029 151.8581
370.000000 74.978 152.0050
375.000000 74.941 152.1867
382.000000 74.875 152.4173
387.000000 74.841 152.6395
395.000000 74.759 152.9582
400.000000 74.735 153.0945
406.000000 74.700 153.2293
412.000000 74.675 153.5455
418.000000 74.614 153.7276
425.000000 74.579 154.0223
431.000000 74.536 154.1840
437.000000 74.497 154.4673
444.000000 74.470 154.7056
450.000000 74.426 154.9224
455.000000 74.395 155.1408
462.000000 74.383 155.3702
468.000000 74.341 155.5916
475.000000 74.300 155.8567
482.000000 74.273 156.2195
487.000000 74.264 156.4254
494.000000 74.233 156.7033
500.000000 74.198 156.9320
508.000000 74.177 157.2535
515.000000 74.146 157.5626
522.000000 74.112 157.7973
530.000000 74.100 158.1387
538.000000 74.064 158.3689
545.000000 74.050 158.7490
552.000000 74.044 159.0259
560.000000 74.002 159.3685
570.000000 73.974 159.7791
580.000000 73.967 160.3422
590.000000 73.939 160.6950
600.000000 73.925 161.0770
608.000000 73.928 161.3629
615.000000 73.889 161.7542
622.000000 73.891 162.0137
630.000000 73.891 162.3937
640.000000 73.872 162.8403
650.000000 73.868 163.1804
660.000000 73.872 163.7757
670.000000 73.860 164.1914
680.000000 73.850 164.6636
690.000000 73.863 165.1714
700.000000 73.879 165.5691
710.000000 73.865 165.9887
720.000000 73.877 166.5212
730.000000 73.907 166.9045
740.000000 73.911 167.3653
750.000000 73.924 167.8018
762.000000 73.950 168.4794
775.000000 73.966 168.9657
788.000000 74.002 169.6273
800.000000 74.032 169.9844
812.000000 74.066 170.6258
825.000000 74.112 171.3317
838.000000 74.177 171.9607
850.000000 74.217 172.4779
862.000000 74.284 173.0227
875.000000 74.339 173.5011
885.000000 74.397 173.9089
900.000000 74.492 174.4386
912.000000 74.564 174.8396
925.000000 74.631 175.2565
938.000000 74.752 175.6046
950.000000 74.783 175.4712
962.000000 74.743 175.9902
975.000000 74.846 177.0544
988.000000 74.930 177.4518
1000.000000 74.992 177.8617
1015.000000 75.185 178.3821
1030.000000 75.305 178.8460
1044.000000 75.441 178.9774
1060.000000 75.592 179.2307
1075.000000 75.733 179.4780
1090.000000 75.859 179.4536
1106.000000 76.030 179.3423
1120.000000 76.182 179.1502
1138.000000 76.316 178.4546
1150.000000 76.324 177.8348
1172.000000 76.202 177.6710
1180.000000 76.203 178.0157
1206.000000 76.319 179.1554
1220.000000 76.399 179.5207
1241.000000 76.574 179.8668
1250.000000 76.644 -179.9100
1265.000000 76.751 -179.9240
1280.000000 76.845 -179.8763
1315.000000 77.069 -179.9467
1320.000000 77.096 -179.9065
1340.000000 77.228 179.9342
1360.000000 77.356 179.9860
1380.000000 77.471 179.9240
1400.000000 77.582 179.7999
1430.000000 77.744 179.7008
1450.000000 77.848 179.5920
1475.000000 77.984 179.4832
1500.000000 78.135 179.5276
1525.000000 78.253 179.3503
1550.000000 78.384 179.1799
1575.000000 78.517 179.1144
1600.000000 78.662 178.9649
1625.000000 78.778 178.8488
1650.000000 78.920 178.6252
1675.000000 79.049 178.5215
1700.000000 79.194 178.3264
1725.000000 79.332 178.2164
1750.000000 79.461 177.8954
1775.000000 79.602 177.8209
1800.000000 79.731 177.5641
1825.000000 79.886 177.3343
1850.000000 80.018 176.9799
1875.000000 80.167 176.7677
1900.000000 80.302 176.3876
1925.000000 80.450 176.0290
1950.000000 80.591 175.5905
1975.000000 80.723 175.3058
2000.000000 80.882 175.0879
2030.000000 81.030 174.2515
2060.000000 81.204 173.6448
2090.000000 81.354 172.9840
2120.000000 81.507 172.3314
2140.000000 81.601 171.8520
2180.000000 81.791 170.9131
2200.000000 81.890 170.4794
2240.000000 82.069 169.4655
2270.000000 82.200 168.7769
2300.000000 82.334 168.2576
2330.000000 82.481 167.6356
2360.000000 82.658 166.9908
2400.000000 82.909 165.6576
2430.000000 83.084 164.3575
2470.000000 83.253 162.4939
2500.000000 83.342 161.1011
2540.000000 83.427 159.3716
2580.000000 83.511 157.9969
2620.000000 83.602 156.5784
2650.000000 83.680 155.4615
2690.000000 83.784 153.6611
2720.000000 83.830 152.2391
2760.000000 83.856 150.3251
2800.000000 83.842 148.6370
2850.000000 83.801 146.6176
2900.000000 83.737 144.8451
2950.000000 83.657 143.2763
3000.000000 83.551 141.7212
3040.000000 83.524 140.7013
3070.000000 83.467 139.9129
3110.000000 83.395 138.8814
3150.000000 83.309 138.1418
3200.000000 83.199 137.1188
3250.000000 83.102 136.2730
3300.000000 82.988 135.5358
3350.000000 82.898 134.8738
3400.000000 82.786 134.3848
3450.000000 82.701 133.9937
3500.000000 82.611 133.4681
3550.000000 82.525 133.1245
3600.000000 82.431 132.7032
3650.000000 82.330 132.4315
3700.000000 82.209 132.3336
3750.000000 82.096 132.2741
3820.000000 81.944 132.5361
3870.000000 81.839 133.0396
3950.000000 81.751 134.1425
4000.000000 81.758 134.6369
4060.000000 81.781 135.8188
4120.000000 81.848 136.4255
4180.000000 81.941 136.9981
4250.000000 82.036 137.3515
4310.000000 82.129 137.5320
4370.000000 82.236 137.6774
4440.000000 82.351 137.7018
4500.000000 82.439 137.7272
4550.000000 82.520 137.6746
4620.000000 82.626 137.5238
4680.000000 82.752 137.2784
4750.000000 82.861 136.9005
4820.000000 82.981 136.4734
4870.000000 83.050 136.0968
4940.000000 83.164 135.5240
5000.000000 83.224 134.9683
5080.000000 83.312 134.0490
5150.000000 83.363 133.0643
5220.000000 83.384 132.0621
5300.000000 83.405 130.9342
5380.000000 83.383 129.6600
5450.000000 83.346 128.7215
5520.000000 83.242 127.7753
5600.000000 83.136 126.7773
5700.000000 82.945 125.8971
5800.000000 82.695 125.1465
5900.000000 82.427 124.7339
6000.000000 82.063 124.7060
6080.000000 81.705 125.7478
6150.000000 81.468 129.0155
6220.000000 81.944 130.8796
6300.000000 81.977 129.2592
6400.000000 81.755 128.9754
6500.000000 81.574 129.8776
6600.000000 81.414 130.9114
6700.000000 81.318 132.3103
6800.000000 81.276 133.7586
6900.000000 81.261 135.3630
7000.000000 81.265 136.9694
7100.000000 81.412 138.5402
7200.000000 81.560 139.8879
7300.000000 81.808 141.0715
7400.000000 82.074 141.4848
7500.000000 82.383 141.5094
7620.000000 82.798 140.7282
7750.000000 83.194 138.5754
7880.000000 83.520 134.8171
8000.000000 83.653 130.5262
8120.000000 83.519 125.1254
8250.000000 83.082 119.5019
8380.000000 82.332 114.7262
8500.000000 81.444 111.6738
8620.000000 80.496 110.0892
8750.000000 79.427 109.8679
8850.000000 78.613 110.7830
9000.000000 77.482 113.0992
9120.000000 76.653 115.9514
9250.000000 75.883 119.7986
9380.000000 75.102 123.9740
9500.000000 74.476 128.1728
9620.000000 73.902 132.9344
9750.000000 73.481 138.1525
9880.000000 72.989 143.3369
10000.000000 72.717 148.4282
10150.000000 72.309 155.3046
10300.000000 72.093 162.1360
10440.000000 71.958 168.3700
10600.000000 71.776 176.1517
10750.000000 71.860 -176.7777
10900.000000 71.913 -169.7088
11060.000000 72.145 -162.3891
11200.000000 72.409 -155.7113
11380.000000 72.851 -147.2521
11500.000000 73.229 -141.6004
11720.000000 74.231 -132.4856
11800.000000 74.685 -129.2310
12060.000000 76.459 -119.3442
12200.000000 77.745 -115.8099
12410.000000 80.216 -113.7280
12500.000000 81.452 -115.0620
12650.000000 83.629 -123.3302
12800.000000 85.146 -141.1089
13150.000000 81.792 -179.6658
13200.000000 81.010 178.6660
13400.000000 78.254 177.7802
13600.000000 75.960 -177.0188
13800.000000 74.373 -166.9920
14000.000000 73.525 -159.0901
14300.000000 72.764 -146.0203
14500.000000 72.463 -138.2156
14750.000000 72.376 -128.7573
15000.000000 72.595 -119.2824
15250.000000 73.206 -111.4577
15500.000000 74.094 -105.1841
15750.000000 75.427 -101.5441
16000.000000 77.443 -107.7217
16250.000000 77.572 -122.5524
16500.000000 76.221 -133.9981
16750.000000 74.206 -138.4218
17000.000000 72.414 -137.8364
17250.000000 70.810 -135.7050
17500.000000 69.435 -133.4677
17750.000000 68.126 -132.0810
18000.000000 66.407 -132.6414
18250.000000 63.960 -132.5360
18500.000000 61.475 -128.8958
18750.000000 58.293 -124.4297
19000.000000 55.898 -116.1085
19250.000000 51.065 -99.5895
19500.000000 48.563 -80.4482
19750.000000 48.401 -52.4967
20000.000000 47.451 -36.5048
20300.000000 45.064 -25.8792
20600.000000 44.829 -14.2841
20900.000000 41.346 15.9621
21200.000000 35.384 57.0222
21400.000000 31.672 36.7437
21800.000000 32.852 116.1819
22000.000000 31.151 58.5148
22400.000000 12.279 132.4814
22700.000000 8.961 -0.3916
23000.000000 5.205 -116.5645
23300.000000 14.224 -168.8750
23600.000000 23.725 -130.7031

