* Measurement data measured by REW V5.20.13
* Source: Microphone (USB Sound Device        ), MICROPHONE (Master Volume), R, volume: 0,250
* Format: 256k Log Swept Sine, 1 sweep at -12,0 dBFS with no timing reference
* Dated: 00:25:00 19-06-2024
* REW Settings:
*  C-weighting compensation: Off
*  Target level: 75.0 dB
* Note: ; 
* Measurement: Simgot Supermix 4 R
* Smoothing: None
* Frequency Step: 1/48 octave
* Start Frequency: 1.000 Hz
*
* Freq(Hz) SPL(dB) Phase(degrees)
1.000000 83.018 124.5036
1.015000 82.782 123.6521
1.030000 82.530 122.7932
1.044000 82.280 121.9841
1.060000 81.976 121.0500
1.075000 81.671 120.1644
1.090000 81.346 119.2685
1.106000 80.973 118.2622
1.120000 80.603 117.1309
1.138000 80.069 115.3221
1.150000 79.679 113.9266
1.172000 78.906 111.0531
1.180000 78.608 109.9274
1.206000 77.593 106.0717
1.220000 77.022 103.9249
1.241000 76.146 100.7025
1.250000 75.767 99.3447
1.265000 75.132 97.1456
1.280000 74.499 95.0615
1.315000 73.060 90.8766
1.320000 72.861 90.3785
1.340000 72.091 88.6958
1.360000 71.370 87.5818
1.380000 70.709 87.1335
1.400000 70.120 87.4479
1.430000 69.400 89.5619
1.450000 69.046 92.2076
1.475000 68.761 97.1419
1.500000 68.626 104.4584
1.525000 68.620 113.9623
1.550000 68.728 125.2859
1.575000 68.936 138.0618
1.600000 69.230 151.9224
1.625000 69.595 166.5001
1.650000 70.016 -178.5727
1.675000 70.479 -163.6634
1.700000 70.970 -149.1395
1.725000 71.474 -135.3688
1.750000 71.976 -122.7188
1.775000 72.463 -111.5568
1.800000 72.919 -102.2506
1.825000 73.329 -95.1676
1.850000 73.710 -90.3799
1.875000 74.121 -87.2668
1.900000 74.558 -85.6180
1.925000 75.016 -85.2482
1.950000 75.488 -85.9722
1.975000 75.969 -87.6045
2.000000 76.453 -89.9597
2.030000 77.028 -93.4793
2.060000 77.587 -97.4528
2.090000 78.121 -101.5598
2.120000 78.619 -105.4802
2.140000 78.926 -107.8318
2.180000 79.465 -111.4796
2.200000 79.691 -112.5913
2.240000 80.073 -114.3719
2.270000 80.310 -115.6801
2.300000 80.508 -116.9626
2.330000 80.673 -118.2178
2.360000 80.808 -119.4435
2.400000 80.950 -121.0291
2.430000 81.033 -122.1792
2.470000 81.121 -123.6569
2.500000 81.176 -124.7211
2.540000 81.242 -126.0774
2.580000 81.305 -127.3629
2.620000 81.341 -128.6107
2.650000 81.347 -129.5201
2.690000 81.332 -130.6859
2.720000 81.305 -131.5177
2.760000 81.252 -132.5587
2.800000 81.182 -133.5092
2.850000 81.080 -134.5486
2.900000 80.967 -135.3975
2.950000 80.849 -136.0341
3.000000 80.698 -136.4910
3.040000 80.555 -136.7351
3.070000 80.439 -136.8478
3.110000 80.278 -136.9045
3.150000 80.115 -136.8547
3.200000 79.919 -136.6435
3.250000 79.741 -136.2676
3.300000 79.595 -135.7273
3.350000 79.466 -134.9182
3.400000 79.342 -133.8256
3.450000 79.228 -132.5366
3.500000 79.131 -131.1382
3.550000 79.056 -129.7174
3.600000 79.008 -128.3610
3.650000 78.994 -127.1561
3.700000 79.020 -126.0937
3.750000 79.088 -125.0107
3.820000 79.237 -123.5314
3.870000 79.368 -122.5635
3.950000 79.594 -121.2954
4.000000 79.729 -120.7498
4.060000 79.878 -120.4106
4.120000 80.040 -120.3792
4.180000 80.211 -120.6016
4.250000 80.408 -121.1163
4.310000 80.561 -121.7199
4.370000 80.688 -122.4215
4.440000 80.796 -123.3593
4.500000 80.867 -124.3686
4.550000 80.913 -125.3224
4.620000 80.953 -126.7640
4.680000 80.966 -128.0372
4.750000 80.953 -129.4870
4.820000 80.908 -130.9129
4.870000 80.855 -131.9808
4.940000 80.756 -133.4972
5.000000 80.652 -134.7715
5.080000 80.494 -136.3589
5.150000 80.343 -137.5812
5.220000 80.164 -138.7100
5.300000 79.932 -139.8940
5.380000 79.690 -140.9277
5.450000 79.484 -141.6783
5.520000 79.293 -142.2551
5.600000 79.071 -142.6670
5.700000 78.800 -142.9095
5.800000 78.567 -142.9997
5.900000 78.403 -143.0587
6.000000 78.301 -142.9151
6.080000 78.255 -142.7550
6.150000 78.238 -142.6902
6.220000 78.240 -142.7844
6.300000 78.273 -143.0870
6.400000 78.364 -143.6435
6.500000 78.480 -144.4255
6.600000 78.591 -145.4636
6.700000 78.702 -146.8251
6.800000 78.818 -148.4516
6.900000 78.924 -150.2109
7.000000 79.003 -152.0004
7.100000 79.061 -153.9316
7.200000 79.102 -155.9204
7.300000 79.126 -157.8264
7.400000 79.132 -159.5896
7.500000 79.115 -161.2943
7.620000 79.083 -163.1666
7.750000 79.051 -164.8528
7.880000 79.010 -166.2021
8.000000 78.983 -167.2056
8.120000 78.985 -167.9959
8.250000 79.013 -168.5576
8.380000 79.068 -168.9839
8.500000 79.150 -169.3760
8.620000 79.263 -169.6984
8.750000 79.401 -170.0718
8.850000 79.510 -170.4439
9.000000 79.688 -171.0955
9.120000 79.825 -171.6683
9.250000 79.955 -172.3403
9.380000 80.073 -173.0727
9.500000 80.165 -173.7243
9.620000 80.238 -174.3195
9.750000 80.298 -174.9282
9.880000 80.345 -175.4460
10.000000 80.377 -175.8149
10.150000 80.404 -176.1589
10.300000 80.429 -176.3971
10.440000 80.452 -176.5052
10.600000 80.476 -176.5658
10.750000 80.503 -176.6092
10.900000 80.532 -176.6315
11.060000 80.557 -176.6967
11.200000 80.576 -176.7856
11.380000 80.589 -176.9338
11.500000 80.589 -177.0587
11.720000 80.574 -177.3150
11.800000 80.564 -177.4081
12.060000 80.513 -177.7228
12.200000 80.480 -177.8968
12.410000 80.424 -178.1749
12.500000 80.399 -178.3148
12.650000 80.355 -178.5695
12.800000 80.308 -178.8639
13.150000 80.184 -179.7404
13.200000 80.164 -179.8809
13.400000 80.079 179.5121
13.600000 79.989 178.8781
13.800000 79.895 178.2337
14.000000 79.807 177.5869
14.300000 79.693 176.6015
14.500000 79.638 175.8976
14.750000 79.588 174.9142
15.000000 79.557 173.7985
15.250000 79.534 172.5572
15.500000 79.514 171.2705
15.750000 79.494 169.9936
16.000000 79.477 168.8176
16.250000 79.473 167.7686
16.500000 79.484 166.8413
16.750000 79.515 166.0058
17.000000 79.560 165.2098
17.250000 79.612 164.4433
17.500000 79.663 163.6986
17.750000 79.705 163.0176
18.000000 79.737 162.4231
18.250000 79.760 161.9409
18.500000 79.779 161.5661
18.750000 79.794 161.2710
19.000000 79.806 161.0298
19.250000 79.813 160.8019
19.500000 79.811 160.5806
19.750000 79.798 160.3605
20.000000 79.774 160.1499
20.299999 79.732 159.9073
20.600000 79.681 159.6603
20.900000 79.622 159.3801
21.200001 79.557 159.0348
21.400000 79.509 158.7633
21.799999 79.402 158.1374
22.000000 79.346 157.7922
22.400000 79.234 157.0511
22.700001 79.157 156.4388
23.000000 79.088 155.7560
23.299999 79.027 154.9986
23.600000 78.970 154.1881
24.000000 78.901 153.0837
24.299999 78.858 152.2843
24.700001 78.816 151.2838
25.000000 78.800 150.5749
25.400000 78.792 149.6692
25.799999 78.792 148.8193
26.200001 78.792 148.0626
26.500000 78.791 147.5715
26.900000 78.788 147.0128
27.200001 78.783 146.6510
27.600000 78.769 146.2287
28.000000 78.746 145.8664
28.500000 78.704 145.4682
29.000000 78.650 145.0528
29.500000 78.579 144.5627
30.000000 78.486 144.0212
30.400000 78.404 143.5783
30.700001 78.344 143.2328
31.100000 78.268 142.7236
31.500000 78.196 142.1438
32.000000 78.108 141.3524
32.500000 78.029 140.5503
33.000000 77.967 139.7498
33.500000 77.918 138.9298
34.000000 77.873 138.1243
34.500000 77.828 137.4070
35.000000 77.789 136.7989
35.500000 77.754 136.2637
36.000000 77.718 135.7739
36.500000 77.678 135.3214
37.000000 77.632 134.8778
37.500000 77.576 134.4186
38.200001 77.476 133.8059
38.700001 77.402 133.4233
39.500000 77.304 132.7162
40.000000 77.242 132.1396
40.599998 77.155 131.4196
41.200001 77.072 130.7753
41.799999 77.004 130.1466
42.500000 76.930 129.3677
43.099998 76.859 128.7605
43.700001 76.793 128.2671
44.400002 76.731 127.7240
45.000000 76.679 127.1954
45.500000 76.627 126.7410
46.200001 76.547 126.1546
46.799999 76.482 125.6633
47.500000 76.406 125.0318
48.200001 76.322 124.4099
48.700001 76.264 124.0028
49.400002 76.190 123.4345
50.000000 76.124 122.9532
50.799999 76.037 122.3919
51.500000 75.967 121.9159
52.200001 75.891 121.4312
53.000000 75.801 120.9349
53.799999 75.720 120.4098
54.500000 75.647 119.8986
55.200001 75.576 119.3823
56.000000 75.498 118.7526
57.000000 75.396 118.0093
58.000000 75.309 117.3728
59.000000 75.220 116.6925
60.000000 75.109 116.1556
60.799999 75.033 115.8167
61.500000 74.972 115.4306
62.200001 74.901 114.9762
63.000000 74.814 114.4827
64.000000 74.720 113.8490
65.000000 74.632 113.1373
66.000000 74.537 112.4795
67.000000 74.450 111.9403
68.000000 74.359 111.4462
69.000000 74.276 111.0676
70.000000 74.192 110.5161
71.000000 74.080 110.0740
72.000000 74.004 109.6175
73.000000 73.908 108.9934
74.000000 73.820 108.5383
75.000000 73.741 107.9736
76.199997 73.628 107.4571
77.500000 73.525 106.9691
78.800003 73.424 106.5232
80.000000 73.344 105.9283
81.199997 73.203 105.4471
82.500000 73.145 105.2328
83.800003 73.029 104.4267
85.000000 72.949 104.1862
86.199997 72.847 103.4712
87.500000 72.747 103.2744
88.500000 72.693 102.7884
90.000000 72.575 102.5310
91.199997 72.543 102.2513
92.500000 72.463 101.7542
93.800003 72.399 101.5018
95.000000 72.347 101.0312
96.199997 72.318 100.4892
97.500000 72.196 99.5288
98.800003 72.109 99.4915
100.000000 72.050 98.7850
101.500000 71.948 98.4712
103.000000 71.840 97.7440
104.400002 71.769 97.4010
106.000000 71.684 96.8096
107.500000 71.605 96.3215
109.000000 71.530 95.9266
110.599998 71.436 95.2652
112.000000 71.346 94.9715
113.800003 71.261 94.4321
115.000000 71.219 94.0451
117.199997 71.075 93.5355
118.000000 71.043 93.3079
120.599998 70.902 92.5632
122.000000 70.828 92.2224
124.099998 70.718 91.5272
125.000000 70.668 91.4203
126.500000 70.614 91.1543
128.000000 70.543 90.8205
131.500000 70.390 90.0029
132.000000 70.361 89.8655
134.000000 70.258 89.5078
136.000000 70.197 89.0236
138.000000 70.106 88.6887
140.000000 70.014 88.3832
143.000000 69.891 87.5919
145.000000 69.818 87.2504
147.500000 69.727 86.8505
150.000000 69.637 86.3902
152.500000 69.545 85.9975
155.000000 69.465 85.5825
157.500000 69.390 85.2340
160.000000 69.313 84.9437
162.500000 69.227 84.6358
165.000000 69.155 84.1356
167.500000 69.089 83.9512
170.000000 69.025 83.6277
172.500000 68.973 83.1877
175.000000 68.897 83.1101
177.500000 68.869 82.5779
180.000000 68.793 82.2602
182.500000 68.791 81.9515
185.000000 68.716 81.6301
187.500000 68.700 81.4107
190.000000 68.678 81.0286
192.500000 68.644 80.8462
195.000000 68.609 80.1685
197.500000 68.583 80.1142
200.000000 68.485 79.5219
203.000000 68.456 79.0983
206.000000 68.434 78.7091
209.000000 68.414 78.2169
212.000000 68.334 77.9842
214.000000 68.309 77.5687
218.000000 68.247 76.9710
220.000000 68.232 76.9253
224.000000 68.174 76.4393
227.000000 68.133 76.0810
230.000000 68.109 75.7609
233.000000 68.050 75.5419
236.000000 67.990 75.1148
240.000000 67.985 74.8751
243.000000 67.926 74.5069
247.000000 67.901 74.0648
250.000000 67.900 73.9179
254.000000 67.868 73.5586
258.000000 67.832 73.1035
262.000000 67.828 73.0030
265.000000 67.792 72.9416
269.000000 67.778 72.3896
272.000000 67.743 72.2103
276.000000 67.699 71.9089
280.000000 67.690 71.3400
285.000000 67.725 71.2430
290.000000 67.667 70.9835
295.000000 67.630 70.4390
300.000000 67.630 69.9333
304.000000 67.635 70.0227
307.000000 67.622 69.6811
311.000000 67.632 69.4448
315.000000 67.606 69.2463
320.000000 67.595 68.9613
325.000000 67.582 68.6394
330.000000 67.585 68.2423
335.000000 67.583 68.1198
340.000000 67.590 67.6466
345.000000 67.585 67.5571
350.000000 67.566 67.1530
355.000000 67.581 67.0982
360.000000 67.609 66.9628
365.000000 67.597 66.4299
370.000000 67.576 66.2754
375.000000 67.591 66.0695
382.000000 67.620 65.8343
387.000000 67.634 65.5656
395.000000 67.627 65.2109
400.000000 67.635 64.9678
406.000000 67.666 64.8003
412.000000 67.663 64.6014
418.000000 67.665 64.5442
425.000000 67.692 63.9808
431.000000 67.712 63.7830
437.000000 67.709 63.7534
444.000000 67.725 63.6301
450.000000 67.716 63.3306
455.000000 67.731 62.9540
462.000000 67.742 62.8802
468.000000 67.757 62.5945
475.000000 67.760 62.5904
482.000000 67.791 62.1469
487.000000 67.776 62.1549
494.000000 67.797 61.9698
500.000000 67.826 61.9479
508.000000 67.876 61.8838
515.000000 67.874 61.7073
522.000000 67.882 61.6422
530.000000 67.914 61.2860
538.000000 67.939 61.2949
545.000000 67.919 61.1941
552.000000 67.964 61.1863
560.000000 67.940 61.0675
570.000000 67.973 60.9613
580.000000 68.011 60.8027
590.000000 68.056 60.6703
600.000000 68.075 60.6281
608.000000 68.084 60.5817
615.000000 68.112 60.6425
622.000000 68.135 60.6695
630.000000 68.150 60.6817
640.000000 68.216 60.4702
650.000000 68.205 60.7516
660.000000 68.240 60.7177
670.000000 68.204 60.7105
680.000000 68.295 60.7908
690.000000 68.318 60.7989
700.000000 68.354 60.8412
710.000000 68.354 61.0194
720.000000 68.420 61.3690
730.000000 68.439 61.4117
740.000000 68.440 61.6399
750.000000 68.496 61.9311
762.000000 68.514 61.9882
775.000000 68.597 62.0760
788.000000 68.639 62.2529
800.000000 68.681 62.7244
812.000000 68.755 62.9281
825.000000 68.791 63.1567
838.000000 68.839 63.5228
850.000000 68.942 63.5911
862.000000 68.976 63.9195
875.000000 69.064 64.4896
885.000000 69.100 64.8667
900.000000 69.225 65.0079
912.000000 69.298 65.3513
925.000000 69.367 65.5818
938.000000 69.475 65.9521
950.000000 69.538 65.9524
962.000000 69.588 66.4605
975.000000 69.727 66.6690
988.000000 69.833 66.8399
1000.000000 69.949 67.8832
1015.000000 70.034 67.0894
1030.000000 70.178 67.5589
1044.000000 70.286 67.6000
1060.000000 70.389 67.7855
1075.000000 70.516 67.8192
1090.000000 70.626 67.9192
1106.000000 70.763 67.8868
1120.000000 70.864 67.8176
1138.000000 71.014 67.9605
1150.000000 71.063 67.7786
1172.000000 71.247 67.7515
1180.000000 71.316 67.6092
1206.000000 71.503 67.4802
1220.000000 71.566 67.5864
1241.000000 71.698 67.4383
1250.000000 71.737 67.2323
1265.000000 71.853 67.0654
1280.000000 71.895 67.0830
1315.000000 72.123 66.7380
1320.000000 72.143 66.7543
1340.000000 72.231 66.5724
1360.000000 72.338 66.3445
1380.000000 72.442 66.3993
1400.000000 72.536 66.3027
1430.000000 72.647 66.1711
1450.000000 72.748 65.8971
1475.000000 72.833 66.0160
1500.000000 72.951 65.8102
1525.000000 73.024 65.7131
1550.000000 73.145 65.8765
1575.000000 73.253 65.8140
1600.000000 73.378 65.7359
1625.000000 73.468 65.8488
1650.000000 73.558 65.9091
1675.000000 73.696 65.6824
1700.000000 73.821 65.8104
1725.000000 73.944 65.7818
1750.000000 74.054 65.7742
1775.000000 74.166 65.9297
1800.000000 74.270 65.8492
1825.000000 74.390 65.6830
1850.000000 74.515 65.6945
1875.000000 74.657 65.6178
1900.000000 74.753 65.3896
1925.000000 74.895 65.1854
1950.000000 75.022 65.1680
1975.000000 75.144 64.9980
2000.000000 75.305 65.1333
2030.000000 75.405 64.5116
2060.000000 75.528 64.1095
2090.000000 75.664 63.9160
2120.000000 75.810 63.3855
2140.000000 75.880 63.2857
2180.000000 76.066 62.8006
2200.000000 76.145 62.4676
2240.000000 76.307 62.1855
2270.000000 76.424 62.1245
2300.000000 76.588 62.1313
2330.000000 76.807 61.8951
2360.000000 77.042 61.3616
2400.000000 77.333 60.0881
2430.000000 77.524 58.8414
2470.000000 77.678 57.1071
2500.000000 77.785 55.6337
2540.000000 77.863 54.0965
2580.000000 77.929 52.6507
2620.000000 77.964 51.3791
2650.000000 78.019 50.3264
2690.000000 78.069 48.9849
2720.000000 78.107 47.9915
2760.000000 78.161 46.5008
2800.000000 78.177 44.8080
2850.000000 78.131 42.7775
2900.000000 78.048 41.0803
2950.000000 77.948 39.1723
3000.000000 77.816 37.5471
3040.000000 77.691 36.8194
3070.000000 77.612 36.0568
3110.000000 77.504 35.1949
3150.000000 77.369 34.6052
3200.000000 77.209 33.7953
3250.000000 77.079 33.1896
3300.000000 76.933 32.5041
3350.000000 76.800 32.1503
3400.000000 76.682 31.6859
3450.000000 76.535 31.5474
3500.000000 76.415 31.2830
3550.000000 76.281 31.0770
3600.000000 76.105 31.0477
3650.000000 75.970 31.1141
3700.000000 75.843 31.6490
3750.000000 75.715 32.1568
3820.000000 75.603 33.0900
3870.000000 75.539 34.0371
3950.000000 75.585 35.3758
4000.000000 75.629 36.4904
4060.000000 75.745 36.6729
4120.000000 75.860 36.8451
4180.000000 75.942 36.9136
4250.000000 76.050 36.7656
4310.000000 76.139 36.8583
4370.000000 76.232 36.6217
4440.000000 76.336 35.9927
4500.000000 76.446 35.3518
4550.000000 76.496 34.8126
4620.000000 76.549 33.9696
4680.000000 76.600 33.0448
4750.000000 76.644 32.0809
4820.000000 76.671 30.7854
4870.000000 76.654 29.9001
4940.000000 76.604 28.6139
5000.000000 76.602 27.3667
5080.000000 76.433 26.1022
5150.000000 76.325 25.0771
5220.000000 76.200 24.2857
5300.000000 76.051 23.4474
5380.000000 75.865 22.6411
5450.000000 75.699 21.9931
5520.000000 75.510 21.9665
5600.000000 75.322 21.4030
5700.000000 75.119 21.2348
5800.000000 74.879 21.4186
5900.000000 74.745 21.8193
6000.000000 74.547 22.1116
6080.000000 74.498 21.7876
6150.000000 74.435 21.9384
6220.000000 74.331 22.2702
6300.000000 74.301 22.3576
6400.000000 74.284 22.3947
6500.000000 74.214 22.4818
6600.000000 74.180 22.3168
6700.000000 74.152 21.7248
6800.000000 74.085 21.2249
6900.000000 74.000 20.4684
7000.000000 73.835 20.0588
7100.000000 73.756 19.7138
7200.000000 73.733 19.5946
7300.000000 73.665 19.4388
7400.000000 73.647 19.2845
7500.000000 73.610 19.0278
7620.000000 73.675 18.2976
7750.000000 73.793 17.2949
7880.000000 73.907 15.0631
8000.000000 73.999 12.7978
8120.000000 73.794 9.7118
8250.000000 73.633 6.1448
8380.000000 73.212 3.3880
8500.000000 72.892 0.7582
8620.000000 72.432 -1.0806
8750.000000 71.931 -2.5342
8850.000000 71.612 -3.2254
9000.000000 70.915 -4.0712
9120.000000 70.593 -5.2608
9250.000000 70.015 -5.1280
9380.000000 69.429 -5.4860
9500.000000 68.841 -4.7668
9620.000000 68.383 -2.9836
9750.000000 67.762 -0.9465
9880.000000 67.267 2.2666
10000.000000 66.692 5.5386
10150.000000 66.529 11.0472
10300.000000 66.530 16.2692
10440.000000 66.624 22.1875
10600.000000 67.078 27.5670
10750.000000 67.593 32.4872
10900.000000 68.386 35.6893
11060.000000 69.445 37.7879
11200.000000 70.380 37.1791
11380.000000 71.562 34.6519
11500.000000 72.243 30.3950
11720.000000 72.861 20.2156
11800.000000 72.898 16.9864
12060.000000 72.181 7.8683
12200.000000 71.650 5.1262
12410.000000 70.909 3.7881
12500.000000 70.754 4.5593
12650.000000 70.411 4.5341
12800.000000 70.298 5.4906
13150.000000 70.487 7.3840
13200.000000 70.531 7.0149
13400.000000 70.925 5.8271
13600.000000 71.075 1.0776
13800.000000 71.399 -2.7604
14000.000000 71.241 -7.0530
14300.000000 70.892 -13.8194
14500.000000 70.435 -16.3676
14750.000000 69.925 -18.8994
15000.000000 69.802 -21.6132
15250.000000 69.901 -22.9032
15500.000000 70.310 -26.1690
15750.000000 70.783 -33.8365
16000.000000 71.133 -44.0448
16250.000000 70.827 -60.3499
16500.000000 69.216 -75.9268
16750.000000 66.902 -84.2932
17000.000000 64.880 -85.3749
17250.000000 63.706 -80.6225
17500.000000 63.337 -82.6526
17750.000000 63.277 -88.0422
18000.000000 63.301 -96.5178
18250.000000 63.035 -107.8309
18500.000000 61.688 -124.7955
18750.000000 60.135 -140.7926
19000.000000 57.409 -156.6236
19250.000000 54.715 -168.5494
19500.000000 51.587 -177.9408
19750.000000 48.072 178.6830
20000.000000 42.715 171.1941
20300.000000 41.005 156.2597
20600.000000 39.692 155.7333
20900.000000 34.228 143.5992
21200.000000 26.614 129.4523
21400.000000 24.277 89.4839
21800.000000 20.555 155.8906
22000.000000 22.693 -112.0391
22400.000000 11.838 99.8281
22700.000000 17.911 62.8750
23000.000000 5.235 56.4062
23300.000000 15.585 -169.9375
23600.000000 24.772 117.6953

