* Measurement data measured by REW V5.20.13
* Source: Microphone (USB Sound Device        ), MICROPHONE (Master Volume), L, volume: 0,250
* Format: 256k Log Swept Sine, 1 sweep at -12,0 dBFS with no timing reference
* Dated: 23:08:03 04-02-2024
* REW Settings:
*  C-weighting compensation: Off
*  Target level: 75.0 dB
* Note: ; 
* Measurement: Simgot EA1000 red L
* Smoothing: None
* Frequency Step: 1/48 octave
* Start Frequency: 1.000 Hz
*
* Freq(Hz) SPL(dB) Phase(degrees)
1.000000 76.464 121.1270
1.015000 76.278 120.1652
1.030000 76.085 119.1892
1.044000 75.898 118.2646
1.060000 75.676 117.1903
1.075000 75.458 116.1651
1.090000 75.232 115.1211
1.106000 74.980 114.0061
1.120000 74.750 113.1385
1.138000 74.441 112.1788
1.150000 74.227 111.6207
1.172000 73.820 110.7286
1.180000 73.667 110.4363
1.206000 73.157 109.5556
1.220000 72.873 109.0986
1.241000 72.436 108.3911
1.250000 72.246 108.0681
1.265000 71.925 107.4874
1.280000 71.599 106.8362
1.315000 70.824 104.9299
1.320000 70.712 104.6025
1.340000 70.261 103.1253
1.360000 69.808 101.3445
1.380000 69.353 99.2126
1.400000 68.898 96.6819
1.430000 68.219 92.0341
1.450000 67.770 88.2985
1.475000 67.208 82.7971
1.500000 66.582 76.0952
1.525000 65.890 68.2883
1.550000 65.151 59.5548
1.575000 64.383 50.0730
1.600000 63.601 40.0216
1.625000 62.825 29.5788
1.650000 62.071 18.9231
1.675000 61.357 8.2331
1.700000 60.701 -2.3131
1.725000 60.119 -12.5366
1.750000 59.630 -22.2594
1.775000 59.250 -31.3027
1.800000 58.998 -39.4883
1.825000 58.890 -46.6377
1.850000 58.950 -52.7729
1.875000 59.187 -58.3091
1.900000 59.578 -63.3115
1.925000 60.101 -67.8273
1.950000 60.731 -71.9035
1.975000 61.444 -75.5873
2.000000 62.219 -78.9257
2.030000 63.195 -82.5421
2.060000 64.184 -85.8103
2.090000 65.146 -88.8117
2.120000 66.040 -91.6277
2.140000 66.578 -93.4421
2.180000 67.461 -97.0286
2.200000 67.782 -98.8469
2.240000 68.284 -102.1652
2.270000 68.582 -104.2816
2.300000 68.821 -106.1166
2.330000 69.007 -107.7041
2.360000 69.147 -109.0780
2.400000 69.275 -110.6364
2.430000 69.336 -111.6439
2.470000 69.384 -112.8369
2.500000 69.404 -113.6628
2.540000 69.422 -114.7368
2.580000 69.439 -115.8400
2.620000 69.408 -116.8998
2.650000 69.350 -117.6319
2.690000 69.235 -118.4965
2.720000 69.126 -119.0421
2.760000 68.959 -119.6045
2.800000 68.775 -119.9462
2.850000 68.539 -120.0098
2.900000 68.313 -119.6059
2.950000 68.108 -118.6542
3.000000 67.856 -117.0476
3.040000 67.626 -115.3570
3.070000 67.448 -113.8993
3.110000 67.213 -111.7599
3.150000 66.998 -109.4618
3.200000 66.778 -106.4747
3.250000 66.642 -103.4899
3.300000 66.621 -100.6440
3.350000 66.723 -97.6417
3.400000 66.924 -94.3305
3.450000 67.201 -90.8858
3.500000 67.532 -87.4832
3.550000 67.893 -84.2982
3.600000 68.261 -81.5064
3.650000 68.614 -79.2833
3.700000 68.956 -77.7216
3.750000 69.332 -76.6657
3.820000 69.894 -75.8669
3.870000 70.298 -75.6674
3.950000 70.910 -75.7577
4.000000 71.247 -75.9389
4.060000 71.587 -76.2137
4.120000 71.883 -76.8081
4.180000 72.142 -77.6745
4.250000 72.400 -78.8920
4.310000 72.586 -79.9949
4.370000 72.740 -81.0440
4.440000 72.878 -82.1583
4.500000 72.953 -83.1815
4.550000 72.989 -84.0561
4.620000 73.007 -85.2502
4.680000 73.000 -86.1861
4.750000 72.972 -87.0989
4.820000 72.919 -87.8138
4.870000 72.855 -88.2560
4.940000 72.741 -88.7594
5.000000 72.634 -89.0640
5.080000 72.494 -89.2556
5.150000 72.389 -89.1869
5.220000 72.280 -88.8420
5.300000 72.152 -88.1820
5.380000 72.041 -87.3553
5.450000 71.974 -86.5910
5.520000 71.950 -85.8502
5.600000 71.967 -84.8491
5.700000 72.039 -83.4915
5.800000 72.155 -82.3082
5.900000 72.301 -81.5764
6.000000 72.503 -81.1860
6.080000 72.687 -81.0843
6.150000 72.848 -81.1534
6.220000 72.997 -81.3740
6.300000 73.153 -81.8528
6.400000 73.344 -82.7806
6.500000 73.518 -83.9331
6.600000 73.661 -85.1598
6.700000 73.769 -86.5144
6.800000 73.848 -88.0068
6.900000 73.905 -89.5007
7.000000 73.931 -90.8820
7.100000 73.935 -92.2260
7.200000 73.940 -93.5106
7.300000 73.944 -94.6761
7.400000 73.945 -95.6777
7.500000 73.947 -96.5414
7.620000 73.950 -97.4477
7.750000 73.973 -98.3142
7.880000 74.041 -99.0043
8.000000 74.129 -99.6055
8.120000 74.245 -100.2863
8.250000 74.407 -101.0530
8.380000 74.586 -101.9019
8.500000 74.754 -102.8191
8.620000 74.934 -103.8516
8.750000 75.125 -105.0402
8.850000 75.260 -105.9816
9.000000 75.452 -107.4817
9.120000 75.592 -108.6634
9.250000 75.726 -109.8613
9.380000 75.843 -111.0109
9.500000 75.942 -111.9714
9.620000 76.035 -112.7997
9.750000 76.127 -113.5737
9.880000 76.219 -114.2266
10.000000 76.309 -114.7088
10.150000 76.425 -115.1676
10.300000 76.551 -115.5504
10.440000 76.680 -115.8248
10.600000 76.835 -116.1003
10.750000 76.987 -116.3739
10.900000 77.143 -116.6469
11.060000 77.305 -116.9707
11.200000 77.445 -117.2820
11.380000 77.614 -117.6993
11.500000 77.720 -117.9887
11.720000 77.898 -118.5234
11.800000 77.958 -118.7122
12.060000 78.134 -119.3105
12.200000 78.219 -119.6152
12.410000 78.335 -120.0527
12.500000 78.381 -120.2350
12.650000 78.453 -120.5306
12.800000 78.520 -120.8200
13.150000 78.657 -121.4809
13.200000 78.675 -121.5752
13.400000 78.743 -121.9499
13.600000 78.806 -122.3357
13.800000 78.867 -122.7358
14.000000 78.925 -123.1695
14.300000 79.008 -123.8924
14.500000 79.060 -124.4355
14.750000 79.119 -125.1710
15.000000 79.171 -125.9600
15.250000 79.216 -126.7708
15.500000 79.260 -127.5833
15.750000 79.305 -128.3896
16.000000 79.356 -129.1896
16.250000 79.415 -130.0022
16.500000 79.481 -130.8351
16.750000 79.552 -131.6987
17.000000 79.625 -132.5783
17.250000 79.698 -133.4577
17.500000 79.769 -134.3147
17.750000 79.841 -135.1253
18.000000 79.913 -135.8860
18.250000 79.988 -136.5937
18.500000 80.065 -137.2600
18.750000 80.143 -137.8914
19.000000 80.221 -138.4938
19.250000 80.297 -139.0682
19.500000 80.370 -139.6131
19.750000 80.440 -140.1278
20.000000 80.506 -140.6150
20.299999 80.580 -141.1732
20.600000 80.648 -141.7121
20.900000 80.708 -142.2383
21.200001 80.759 -142.7514
21.400000 80.789 -143.0830
21.799999 80.841 -143.7237
22.000000 80.864 -144.0384
22.400000 80.907 -144.6783
22.700001 80.938 -145.1871
23.000000 80.964 -145.7298
23.299999 80.986 -146.2979
23.600000 81.004 -146.8784
24.000000 81.026 -147.6552
24.299999 81.044 -148.2376
24.700001 81.072 -149.0238
25.000000 81.095 -149.6261
25.400000 81.130 -150.4398
25.799999 81.166 -151.2437
26.200001 81.205 -152.0193
26.500000 81.236 -152.5814
26.900000 81.281 -153.3095
27.200001 81.315 -153.8400
27.600000 81.358 -154.5184
28.000000 81.397 -155.1514
28.500000 81.444 -155.8773
29.000000 81.488 -156.5554
29.500000 81.525 -157.2078
30.000000 81.554 -157.8397
30.400000 81.573 -158.3345
30.700001 81.585 -158.7048
31.100000 81.597 -159.2044
31.500000 81.607 -159.7110
32.000000 81.615 -160.3480
32.500000 81.622 -160.9885
33.000000 81.631 -161.6427
33.500000 81.641 -162.3124
34.000000 81.653 -162.9840
34.500000 81.666 -163.6471
35.000000 81.682 -164.3036
35.500000 81.697 -164.9513
36.000000 81.710 -165.5722
36.500000 81.720 -166.1491
37.000000 81.731 -166.6826
37.500000 81.743 -167.1886
38.200001 81.758 -167.8837
38.700001 81.766 -168.3825
39.500000 81.768 -169.1715
40.000000 81.766 -169.6453
40.599998 81.764 -170.2031
41.200001 81.763 -170.7755
41.799999 81.761 -171.3625
42.500000 81.756 -172.0358
43.099998 81.753 -172.5953
43.700001 81.752 -173.1487
44.400002 81.750 -173.7863
45.000000 81.746 -174.3183
45.500000 81.742 -174.7485
46.200001 81.735 -175.3289
46.799999 81.727 -175.8059
47.500000 81.718 -176.3436
48.200001 81.709 -176.8756
48.700001 81.702 -177.2583
49.400002 81.691 -177.7872
50.000000 81.681 -178.2257
50.799999 81.670 -178.8199
51.500000 81.654 -179.3479
52.200001 81.634 -179.8271
53.000000 81.616 179.6682
53.799999 81.599 179.1386
54.500000 81.580 178.6891
55.200001 81.564 178.2592
56.000000 81.549 177.7236
57.000000 81.520 177.0360
58.000000 81.490 176.4294
59.000000 81.466 175.8011
60.000000 81.428 175.2095
60.799999 81.399 174.8420
61.500000 81.382 174.5258
62.200001 81.364 174.1678
63.000000 81.332 173.7721
64.000000 81.292 173.3920
65.000000 81.268 173.0425
66.000000 81.251 172.6577
67.000000 81.239 172.2592
68.000000 81.229 171.8279
69.000000 81.219 171.3937
70.000000 81.207 170.9177
71.000000 81.186 170.4556
72.000000 81.169 170.0173
73.000000 81.149 169.5151
74.000000 81.120 169.0732
75.000000 81.106 168.6355
76.199997 81.075 168.0066
77.500000 81.036 167.4842
78.800003 80.999 166.9189
80.000000 80.966 166.4715
81.199997 80.930 165.9553
82.500000 80.888 165.4929
83.800003 80.848 164.9858
85.000000 80.811 164.5451
86.199997 80.767 164.0704
87.500000 80.720 163.6357
88.500000 80.684 163.2975
90.000000 80.639 162.8033
91.199997 80.595 162.4181
92.500000 80.559 162.0109
93.800003 80.506 161.5921
95.000000 80.468 161.2733
96.199997 80.426 160.9071
97.500000 80.378 160.5110
98.800003 80.322 160.2532
100.000000 80.302 159.9706
101.500000 80.247 159.5280
103.000000 80.194 159.1074
104.400002 80.138 158.8590
106.000000 80.090 158.4203
107.500000 80.037 158.1248
109.000000 79.984 157.7911
110.599998 79.940 157.4725
112.000000 79.886 157.1556
113.800003 79.830 156.8115
115.000000 79.792 156.5801
117.199997 79.727 156.1642
118.000000 79.696 156.0097
120.599998 79.613 155.5587
122.000000 79.569 155.3536
124.099998 79.494 154.9301
125.000000 79.469 154.8390
126.500000 79.426 154.5464
128.000000 79.380 154.3382
131.500000 79.271 153.8213
132.000000 79.256 153.7512
134.000000 79.192 153.4478
136.000000 79.134 153.2380
138.000000 79.071 152.9193
140.000000 79.006 152.6892
143.000000 78.922 152.3109
145.000000 78.853 152.0966
147.500000 78.788 151.8119
150.000000 78.723 151.6086
152.500000 78.644 151.3678
155.000000 78.572 151.1223
157.500000 78.503 150.9621
160.000000 78.428 150.7601
162.500000 78.366 150.5324
165.000000 78.291 150.3239
167.500000 78.235 150.1630
170.000000 78.172 149.9611
172.500000 78.104 149.8205
175.000000 78.027 149.7702
177.500000 77.973 149.6168
180.000000 77.908 149.4450
182.500000 77.853 149.3746
185.000000 77.787 149.2106
187.500000 77.731 149.0667
190.000000 77.674 148.9749
192.500000 77.615 148.9367
195.000000 77.560 148.8294
197.500000 77.499 148.7728
200.000000 77.438 148.6340
203.000000 77.383 148.4952
206.000000 77.304 148.5459
209.000000 77.247 148.4464
212.000000 77.187 148.4038
214.000000 77.140 148.3824
218.000000 77.061 148.3068
220.000000 77.025 148.2540
224.000000 76.931 148.1930
227.000000 76.880 148.2105
230.000000 76.820 148.1656
233.000000 76.756 148.1395
236.000000 76.714 148.1423
240.000000 76.627 148.1583
243.000000 76.576 148.0997
247.000000 76.496 148.2190
250.000000 76.456 148.1679
254.000000 76.388 148.1539
258.000000 76.319 148.2374
262.000000 76.257 148.2815
265.000000 76.210 148.2389
269.000000 76.144 148.2855
272.000000 76.102 148.3523
276.000000 76.046 148.4661
280.000000 75.981 148.4210
285.000000 75.913 148.5455
290.000000 75.851 148.6562
295.000000 75.772 148.7865
300.000000 75.707 148.8581
304.000000 75.645 148.8586
307.000000 75.605 149.0257
311.000000 75.569 149.1382
315.000000 75.505 149.1906
320.000000 75.451 149.3099
325.000000 75.407 149.4800
330.000000 75.348 149.5596
335.000000 75.292 149.7626
340.000000 75.237 149.9015
345.000000 75.184 150.0347
350.000000 75.135 150.2354
355.000000 75.063 150.3059
360.000000 75.037 150.4473
365.000000 74.991 150.6854
370.000000 74.931 150.8206
375.000000 74.881 150.9457
382.000000 74.839 151.2905
387.000000 74.788 151.3181
395.000000 74.727 151.6801
400.000000 74.684 151.8287
406.000000 74.641 152.0523
412.000000 74.600 152.1506
418.000000 74.560 152.4524
425.000000 74.510 152.7110
431.000000 74.473 152.9330
437.000000 74.436 153.1133
444.000000 74.378 153.3762
450.000000 74.350 153.6149
455.000000 74.324 153.8908
462.000000 74.299 154.2098
468.000000 74.249 154.3425
475.000000 74.220 154.6816
482.000000 74.172 154.8722
487.000000 74.161 155.1084
494.000000 74.123 155.3597
500.000000 74.103 155.6646
508.000000 74.057 155.9969
515.000000 74.011 156.2466
522.000000 74.007 156.4658
530.000000 73.962 156.7873
538.000000 73.962 157.2104
545.000000 73.921 157.4853
552.000000 73.896 157.8416
560.000000 73.885 158.1370
570.000000 73.863 158.5979
580.000000 73.826 158.9738
590.000000 73.812 159.4281
600.000000 73.781 159.7896
608.000000 73.780 160.2426
615.000000 73.773 160.4631
622.000000 73.756 160.8121
630.000000 73.754 161.0824
640.000000 73.735 161.6672
650.000000 73.735 162.0951
660.000000 73.731 162.5035
670.000000 73.710 162.9529
680.000000 73.726 163.3414
690.000000 73.708 163.8050
700.000000 73.719 164.1767
710.000000 73.738 164.6047
720.000000 73.723 165.1190
730.000000 73.724 165.5442
740.000000 73.729 165.9533
750.000000 73.768 166.4150
762.000000 73.773 166.8608
775.000000 73.784 167.5810
788.000000 73.794 168.1250
800.000000 73.820 168.7854
812.000000 73.860 169.3604
825.000000 73.892 169.7867
838.000000 73.942 170.5099
850.000000 73.977 170.9179
862.000000 74.036 171.5551
875.000000 74.085 172.1728
885.000000 74.125 172.5202
900.000000 74.179 173.1571
912.000000 74.252 173.6614
925.000000 74.311 174.1918
938.000000 74.382 174.5752
950.000000 74.448 175.1053
962.000000 74.520 175.5502
975.000000 74.622 176.4266
988.000000 74.755 176.5759
1000.000000 74.769 176.5061
1015.000000 74.927 177.1143
1030.000000 75.051 177.4539
1044.000000 75.118 177.7568
1060.000000 75.247 178.0775
1075.000000 75.353 178.2717
1090.000000 75.458 178.4056
1106.000000 75.586 178.4337
1120.000000 75.692 178.5007
1138.000000 75.754 178.5618
1150.000000 75.814 178.8485
1172.000000 76.010 179.2130
1180.000000 76.065 179.1637
1206.000000 76.234 179.1517
1220.000000 76.321 179.2877
1241.000000 76.442 179.1216
1250.000000 76.515 179.1235
1265.000000 76.595 179.1143
1280.000000 76.674 178.9576
1315.000000 76.872 178.9287
1320.000000 76.893 178.8501
1340.000000 77.009 178.7643
1360.000000 77.089 178.7639
1380.000000 77.197 178.6289
1400.000000 77.306 178.6522
1430.000000 77.462 178.5304
1450.000000 77.558 178.4765
1475.000000 77.673 178.4189
1500.000000 77.794 178.3333
1525.000000 77.913 178.2910
1550.000000 78.036 178.1318
1575.000000 78.145 178.0845
1600.000000 78.268 177.9493
1625.000000 78.395 177.8920
1650.000000 78.505 177.7318
1675.000000 78.640 177.6500
1700.000000 78.751 177.5814
1725.000000 78.873 177.4204
1750.000000 78.998 177.2692
1775.000000 79.128 177.1363
1800.000000 79.271 176.9397
1825.000000 79.375 176.7278
1850.000000 79.517 176.6562
1875.000000 79.634 176.4412
1900.000000 79.766 176.1914
1925.000000 79.915 175.9415
1950.000000 80.038 175.7333
1975.000000 80.174 175.4607
2000.000000 80.312 175.3872
2030.000000 80.467 174.7316
2060.000000 80.621 174.3949
2090.000000 80.790 173.7643
2120.000000 80.943 173.3681
2140.000000 81.066 173.0298
2180.000000 81.259 172.2051
2200.000000 81.367 171.7218
2240.000000 81.559 170.7620
2270.000000 81.692 170.0665
2300.000000 81.826 169.3311
2330.000000 81.936 168.6954
2360.000000 82.050 168.0460
2400.000000 82.238 167.3112
2430.000000 82.403 166.6270
2470.000000 82.611 165.4004
2500.000000 82.737 164.1943
2540.000000 82.864 162.7310
2580.000000 82.971 161.4746
2620.000000 83.085 160.2663
2650.000000 83.175 159.4712
2690.000000 83.324 158.1725
2720.000000 83.421 156.9757
2760.000000 83.521 155.2699
2800.000000 83.590 153.6199
2850.000000 83.617 151.5428
2900.000000 83.623 149.7100
2950.000000 83.622 147.8802
3000.000000 83.559 146.1295
3040.000000 83.548 145.0846
3070.000000 83.510 144.1117
3110.000000 83.458 143.1252
3150.000000 83.408 142.1427
3200.000000 83.332 140.9855
3250.000000 83.260 139.9948
3300.000000 83.177 139.1574
3350.000000 83.099 138.3046
3400.000000 83.026 137.6879
3450.000000 82.959 137.1041
3500.000000 82.884 136.6015
3550.000000 82.822 136.1229
3600.000000 82.762 135.5939
3650.000000 82.690 135.0737
3700.000000 82.608 134.5250
3750.000000 82.529 134.1780
3820.000000 82.357 134.1715
3870.000000 82.281 134.2094
3950.000000 82.167 134.7005
4000.000000 82.142 134.7449
4060.000000 82.103 135.3174
4120.000000 82.085 135.6488
4180.000000 82.073 135.9003
4250.000000 82.048 136.0746
4310.000000 81.905 136.2905
4370.000000 81.601 138.9424
4440.000000 82.280 143.0814
4500.000000 82.707 141.6708
4550.000000 82.844 140.8787
4620.000000 82.983 139.8937
4680.000000 83.084 139.3526
4750.000000 83.201 138.7865
4820.000000 83.307 138.1044
4870.000000 83.382 137.7950
4940.000000 83.493 136.9308
5000.000000 83.551 136.4687
5080.000000 83.666 135.3937
5150.000000 83.739 134.4955
5220.000000 83.789 133.5386
5300.000000 83.830 132.2947
5380.000000 83.822 131.0627
5450.000000 83.790 130.0366
5520.000000 83.750 128.8694
5600.000000 83.650 127.8348
5700.000000 83.492 126.6127
5800.000000 83.308 125.5501
5900.000000 83.101 124.8625
6000.000000 82.829 124.4027
6080.000000 82.624 124.4571
6150.000000 82.465 124.6069
6220.000000 82.250 124.8152
6300.000000 82.028 125.3459
6400.000000 81.699 126.5000
6500.000000 81.225 129.6707
6600.000000 81.623 136.8090
6700.000000 82.261 134.3645
6800.000000 82.147 133.1759
6900.000000 82.029 133.4680
7000.000000 81.986 134.3287
7100.000000 82.022 135.7218
7200.000000 82.110 136.7398
7300.000000 82.258 137.6853
7400.000000 82.474 138.1745
7500.000000 82.744 138.3552
7620.000000 83.074 137.5972
7750.000000 83.403 135.7232
7880.000000 83.697 132.5087
8000.000000 83.821 128.2125
8120.000000 83.718 123.8323
8250.000000 83.341 118.5383
8380.000000 82.702 114.0156
8500.000000 81.897 110.8233
8620.000000 81.030 109.0410
8750.000000 80.034 108.3438
8850.000000 79.228 108.6338
9000.000000 78.125 110.2924
9120.000000 77.281 113.3004
9250.000000 76.445 116.6338
9380.000000 75.740 120.1969
9500.000000 75.063 124.4423
9620.000000 74.510 128.5086
9750.000000 73.995 133.4303
9880.000000 73.503 138.7133
10000.000000 73.196 143.7525
10150.000000 72.790 150.2626
10300.000000 72.468 157.3256
10440.000000 72.283 162.9489
10600.000000 72.025 170.0248
10750.000000 72.074 177.6455
10900.000000 72.120 -175.8366
11060.000000 72.296 -168.0808
11200.000000 72.391 -161.6799
11380.000000 72.728 -153.6246
11500.000000 73.105 -148.2222
11720.000000 73.944 -138.4323
11800.000000 74.256 -135.2513
12060.000000 75.758 -124.3530
12200.000000 76.862 -119.0214
12410.000000 79.035 -115.1860
12500.000000 80.069 -114.6297
12650.000000 82.070 -117.2114
12800.000000 84.151 -126.8513
13150.000000 83.679 -171.6786
13200.000000 82.931 -175.3091
13400.000000 79.947 179.0561
13600.000000 77.485 -177.9371
13800.000000 75.840 -169.2112
14000.000000 74.895 -161.6993
14300.000000 73.980 -151.0900
14500.000000 73.567 -144.2717
14750.000000 73.336 -134.9485
15000.000000 73.345 -125.8535
15250.000000 73.726 -117.9020
15500.000000 74.468 -111.1391
15750.000000 75.627 -107.5475
16000.000000 76.929 -109.0170
16250.000000 77.818 -117.8118
16500.000000 77.298 -129.8072
16750.000000 76.048 -136.4525
17000.000000 73.994 -141.9944
17250.000000 72.011 -140.6596
17500.000000 70.380 -137.5819
17750.000000 68.772 -134.4478
18000.000000 67.347 -130.4262
18250.000000 65.534 -128.2170
18500.000000 63.410 -127.7804
18750.000000 61.214 -120.8345
19000.000000 58.249 -116.1466
19250.000000 55.588 -107.6077
19500.000000 52.853 -92.0424
19750.000000 49.918 -78.6098
20000.000000 47.872 -54.3062
20300.000000 45.617 -24.4473
20600.000000 43.394 1.3216
20900.000000 41.272 7.3334
21200.000000 40.932 14.6012
21400.000000 40.188 38.9113
21800.000000 32.309 30.8075
22000.000000 25.146 -3.5882
22400.000000 13.146 168.4839
22700.000000 12.744 41.8315
23000.000000 5.573 -35.4355
23300.000000 12.533 65.6562
23600.000000 16.606 -147.9805

